#  E (eV)   dos(E)     Int dos(E) EFermi =   -5.262 eV
 -21.668 -0.5955E-03 -0.5955E-05
 -21.658 -0.8803E-03 -0.1476E-04
 -21.648 -0.1285E-02 -0.2761E-04
 -21.638 -0.1853E-02 -0.4615E-04
 -21.628 -0.2639E-02 -0.7254E-04
 -21.618 -0.3710E-02 -0.1096E-03
 -21.608 -0.5148E-02 -0.1611E-03
 -21.598 -0.7049E-02 -0.2316E-03
 -21.588 -0.9524E-02 -0.3268E-03
 -21.578 -0.1269E-01 -0.4538E-03
 -21.568 -0.1668E-01 -0.6205E-03
 -21.558 -0.2160E-01 -0.8365E-03
 -21.548 -0.2756E-01 -0.1112E-02
 -21.538 -0.3463E-01 -0.1458E-02
 -21.528 -0.4281E-01 -0.1887E-02
 -21.518 -0.5202E-01 -0.2407E-02
 -21.508 -0.6208E-01 -0.3028E-02
 -21.498 -0.7265E-01 -0.3754E-02
 -21.488 -0.8320E-01 -0.4586E-02
 -21.478 -0.9302E-01 -0.5516E-02
 -21.468 -0.1012E+00 -0.6528E-02
 -21.458 -0.1064E+00 -0.7592E-02
 -21.448 -0.1073E+00 -0.8665E-02
 -21.438 -0.1023E+00 -0.9688E-02
 -21.428 -0.8944E-01 -0.1058E-01
 -21.418 -0.6689E-01 -0.1125E-01
 -21.408 -0.3269E-01 -0.1158E-01
 -21.398  0.1498E-01 -0.1143E-01
 -21.388  0.7772E-01 -0.1065E-01
 -21.378  0.1568E+00 -0.9083E-02
 -21.368  0.2529E+00 -0.6555E-02
 -21.358  0.3661E+00 -0.2894E-02
 -21.348  0.4959E+00  0.2065E-02
 -21.338  0.6408E+00  0.8473E-02
 -21.328  0.7987E+00  0.1646E-01
 -21.318  0.9665E+00  0.2613E-01
 -21.308  0.1141E+01  0.3753E-01
 -21.298  0.1317E+01  0.5070E-01
 -21.288  0.1491E+01  0.6562E-01
 -21.278  0.1659E+01  0.8220E-01
 -21.268  0.1814E+01  0.1003E+00
 -21.258  0.1954E+01  0.1199E+00
 -21.248  0.2075E+01  0.1406E+00
 -21.238  0.2174E+01  0.1624E+00
 -21.228  0.2248E+01  0.1849E+00
 -21.218  0.2298E+01  0.2078E+00
 -21.208  0.2322E+01  0.2311E+00
 -21.198  0.2322E+01  0.2543E+00
 -21.188  0.2300E+01  0.2773E+00
 -21.178  0.2258E+01  0.2999E+00
 -21.168  0.2199E+01  0.3219E+00
 -21.158  0.2127E+01  0.3431E+00
 -21.148  0.2045E+01  0.3636E+00
 -21.138  0.1957E+01  0.3832E+00
 -21.128  0.1865E+01  0.4018E+00
 -21.118  0.1773E+01  0.4195E+00
 -21.108  0.1683E+01  0.4364E+00
 -21.098  0.1597E+01  0.4523E+00
 -21.088  0.1516E+01  0.4675E+00
 -21.078  0.1442E+01  0.4819E+00
 -21.068  0.1375E+01  0.4957E+00
 -21.058  0.1315E+01  0.5088E+00
 -21.048  0.1262E+01  0.5214E+00
 -21.038  0.1216E+01  0.5336E+00
 -21.028  0.1176E+01  0.5454E+00
 -21.018  0.1141E+01  0.5568E+00
 -21.008  0.1111E+01  0.5679E+00
 -20.998  0.1085E+01  0.5787E+00
 -20.988  0.1062E+01  0.5893E+00
 -20.978  0.1041E+01  0.5997E+00
 -20.968  0.1023E+01  0.6100E+00
 -20.958  0.1007E+01  0.6200E+00
 -20.948  0.9915E+00  0.6300E+00
 -20.938  0.9775E+00  0.6397E+00
 -20.928  0.9643E+00  0.6494E+00
 -20.918  0.9518E+00  0.6589E+00
 -20.908  0.9398E+00  0.6683E+00
 -20.898  0.9283E+00  0.6776E+00
 -20.888  0.9172E+00  0.6867E+00
 -20.878  0.9065E+00  0.6958E+00
 -20.868  0.8960E+00  0.7048E+00
 -20.858  0.8859E+00  0.7136E+00
 -20.848  0.8761E+00  0.7224E+00
 -20.838  0.8665E+00  0.7311E+00
 -20.828  0.8572E+00  0.7396E+00
 -20.818  0.8482E+00  0.7481E+00
 -20.808  0.8394E+00  0.7565E+00
 -20.798  0.8308E+00  0.7648E+00
 -20.788  0.8225E+00  0.7730E+00
 -20.778  0.8145E+00  0.7812E+00
 -20.768  0.8067E+00  0.7892E+00
 -20.758  0.7990E+00  0.7972E+00
 -20.748  0.7916E+00  0.8052E+00
 -20.738  0.7844E+00  0.8130E+00
 -20.728  0.7774E+00  0.8208E+00
 -20.718  0.7706E+00  0.8285E+00
 -20.708  0.7640E+00  0.8361E+00
 -20.698  0.7575E+00  0.8437E+00
 -20.688  0.7512E+00  0.8512E+00
 -20.678  0.7451E+00  0.8587E+00
 -20.668  0.7391E+00  0.8660E+00
 -20.658  0.7333E+00  0.8734E+00
 -20.648  0.7276E+00  0.8807E+00
 -20.638  0.7221E+00  0.8879E+00
 -20.628  0.7167E+00  0.8950E+00
 -20.618  0.7114E+00  0.9022E+00
 -20.608  0.7062E+00  0.9092E+00
 -20.598  0.7012E+00  0.9162E+00
 -20.588  0.6962E+00  0.9232E+00
 -20.578  0.6914E+00  0.9301E+00
 -20.568  0.6867E+00  0.9370E+00
 -20.558  0.6821E+00  0.9438E+00
 -20.548  0.6776E+00  0.9506E+00
 -20.538  0.6732E+00  0.9573E+00
 -20.528  0.6689E+00  0.9640E+00
 -20.518  0.6646E+00  0.9706E+00
 -20.508  0.6605E+00  0.9772E+00
 -20.498  0.6564E+00  0.9838E+00
 -20.488  0.6525E+00  0.9903E+00
 -20.478  0.6485E+00  0.9968E+00
 -20.468  0.6447E+00  0.1003E+01
 -20.458  0.6410E+00  0.1010E+01
 -20.448  0.6373E+00  0.1016E+01
 -20.438  0.6337E+00  0.1022E+01
 -20.428  0.6301E+00  0.1029E+01
 -20.418  0.6267E+00  0.1035E+01
 -20.408  0.6232E+00  0.1041E+01
 -20.398  0.6199E+00  0.1047E+01
 -20.388  0.6166E+00  0.1054E+01
 -20.378  0.6134E+00  0.1060E+01
 -20.368  0.6102E+00  0.1066E+01
 -20.358  0.6071E+00  0.1072E+01
 -20.348  0.6040E+00  0.1078E+01
 -20.338  0.6010E+00  0.1084E+01
 -20.328  0.5980E+00  0.1090E+01
 -20.318  0.5951E+00  0.1096E+01
 -20.308  0.5922E+00  0.1102E+01
 -20.298  0.5894E+00  0.1108E+01
 -20.288  0.5866E+00  0.1114E+01
 -20.278  0.5839E+00  0.1119E+01
 -20.268  0.5812E+00  0.1125E+01
 -20.258  0.5786E+00  0.1131E+01
 -20.248  0.5760E+00  0.1137E+01
 -20.238  0.5734E+00  0.1142E+01
 -20.228  0.5709E+00  0.1148E+01
 -20.218  0.5684E+00  0.1154E+01
 -20.208  0.5659E+00  0.1160E+01
 -20.198  0.5635E+00  0.1165E+01
 -20.188  0.5611E+00  0.1171E+01
 -20.178  0.5588E+00  0.1176E+01
 -20.168  0.5565E+00  0.1182E+01
 -20.158  0.5542E+00  0.1187E+01
 -20.148  0.5520E+00  0.1193E+01
 -20.138  0.5498E+00  0.1198E+01
 -20.128  0.5476E+00  0.1204E+01
 -20.118  0.5455E+00  0.1209E+01
 -20.108  0.5434E+00  0.1215E+01
 -20.098  0.5413E+00  0.1220E+01
 -20.088  0.5392E+00  0.1226E+01
 -20.078  0.5372E+00  0.1231E+01
 -20.068  0.5352E+00  0.1236E+01
 -20.058  0.5332E+00  0.1242E+01
 -20.048  0.5313E+00  0.1247E+01
 -20.038  0.5293E+00  0.1252E+01
 -20.028  0.5274E+00  0.1258E+01
 -20.018  0.5256E+00  0.1263E+01
 -20.008  0.5237E+00  0.1268E+01
 -19.998  0.5219E+00  0.1273E+01
 -19.988  0.5201E+00  0.1278E+01
 -19.978  0.5183E+00  0.1284E+01
 -19.968  0.5166E+00  0.1289E+01
 -19.958  0.5148E+00  0.1294E+01
 -19.948  0.5131E+00  0.1299E+01
 -19.938  0.5114E+00  0.1304E+01
 -19.928  0.5098E+00  0.1309E+01
 -19.918  0.5081E+00  0.1314E+01
 -19.908  0.5065E+00  0.1319E+01
 -19.898  0.5049E+00  0.1325E+01
 -19.888  0.5033E+00  0.1330E+01
 -19.878  0.5017E+00  0.1335E+01
 -19.868  0.5002E+00  0.1340E+01
 -19.858  0.4986E+00  0.1345E+01
 -19.848  0.4971E+00  0.1350E+01
 -19.838  0.4956E+00  0.1354E+01
 -19.828  0.4942E+00  0.1359E+01
 -19.818  0.4927E+00  0.1364E+01
 -19.808  0.4913E+00  0.1369E+01
 -19.798  0.4898E+00  0.1374E+01
 -19.788  0.4884E+00  0.1379E+01
 -19.778  0.4870E+00  0.1384E+01
 -19.768  0.4857E+00  0.1389E+01
 -19.758  0.4843E+00  0.1394E+01
 -19.748  0.4830E+00  0.1398E+01
 -19.738  0.4816E+00  0.1403E+01
 -19.728  0.4803E+00  0.1408E+01
 -19.718  0.4790E+00  0.1413E+01
 -19.708  0.4777E+00  0.1418E+01
 -19.698  0.4765E+00  0.1422E+01
 -19.688  0.4752E+00  0.1427E+01
 -19.678  0.4740E+00  0.1432E+01
 -19.668  0.4727E+00  0.1437E+01
 -19.658  0.4715E+00  0.1441E+01
 -19.648  0.4703E+00  0.1446E+01
 -19.638  0.4691E+00  0.1451E+01
 -19.628  0.4680E+00  0.1455E+01
 -19.618  0.4668E+00  0.1460E+01
 -19.608  0.4656E+00  0.1465E+01
 -19.598  0.4645E+00  0.1469E+01
 -19.588  0.4634E+00  0.1474E+01
 -19.578  0.4623E+00  0.1479E+01
 -19.568  0.4612E+00  0.1483E+01
 -19.558  0.4601E+00  0.1488E+01
 -19.548  0.4590E+00  0.1492E+01
 -19.538  0.4580E+00  0.1497E+01
 -19.528  0.4569E+00  0.1502E+01
 -19.518  0.4559E+00  0.1506E+01
 -19.508  0.4549E+00  0.1511E+01
 -19.498  0.4538E+00  0.1515E+01
 -19.488  0.4528E+00  0.1520E+01
 -19.478  0.4518E+00  0.1524E+01
 -19.468  0.4508E+00  0.1529E+01
 -19.458  0.4499E+00  0.1533E+01
 -19.448  0.4489E+00  0.1538E+01
 -19.438  0.4480E+00  0.1542E+01
 -19.428  0.4470E+00  0.1547E+01
 -19.418  0.4461E+00  0.1551E+01
 -19.408  0.4452E+00  0.1556E+01
 -19.398  0.4443E+00  0.1560E+01
 -19.388  0.4434E+00  0.1565E+01
 -19.378  0.4425E+00  0.1569E+01
 -19.368  0.4416E+00  0.1573E+01
 -19.358  0.4407E+00  0.1578E+01
 -19.348  0.4399E+00  0.1582E+01
 -19.338  0.4390E+00  0.1587E+01
 -19.328  0.4382E+00  0.1591E+01
 -19.318  0.4374E+00  0.1595E+01
 -19.308  0.4366E+00  0.1600E+01
 -19.298  0.4358E+00  0.1604E+01
 -19.288  0.4350E+00  0.1608E+01
 -19.278  0.4342E+00  0.1613E+01
 -19.268  0.4334E+00  0.1617E+01
 -19.258  0.4326E+00  0.1621E+01
 -19.248  0.4319E+00  0.1626E+01
 -19.238  0.4311E+00  0.1630E+01
 -19.228  0.4304E+00  0.1634E+01
 -19.218  0.4297E+00  0.1639E+01
 -19.208  0.4290E+00  0.1643E+01
 -19.198  0.4282E+00  0.1647E+01
 -19.188  0.4275E+00  0.1651E+01
 -19.178  0.4269E+00  0.1656E+01
 -19.168  0.4262E+00  0.1660E+01
 -19.158  0.4255E+00  0.1664E+01
 -19.148  0.4249E+00  0.1668E+01
 -19.138  0.4242E+00  0.1673E+01
 -19.128  0.4236E+00  0.1677E+01
 -19.118  0.4230E+00  0.1681E+01
 -19.108  0.4223E+00  0.1685E+01
 -19.098  0.4217E+00  0.1690E+01
 -19.088  0.4212E+00  0.1694E+01
 -19.078  0.4206E+00  0.1698E+01
 -19.068  0.4200E+00  0.1702E+01
 -19.058  0.4194E+00  0.1706E+01
 -19.048  0.4189E+00  0.1711E+01
 -19.038  0.4184E+00  0.1715E+01
 -19.028  0.4179E+00  0.1719E+01
 -19.018  0.4173E+00  0.1723E+01
 -19.008  0.4169E+00  0.1727E+01
 -18.998  0.4164E+00  0.1732E+01
 -18.988  0.4159E+00  0.1736E+01
 -18.978  0.4155E+00  0.1740E+01
 -18.968  0.4150E+00  0.1744E+01
 -18.958  0.4146E+00  0.1748E+01
 -18.948  0.4142E+00  0.1752E+01
 -18.938  0.4138E+00  0.1756E+01
 -18.928  0.4134E+00  0.1761E+01
 -18.918  0.4131E+00  0.1765E+01
 -18.908  0.4127E+00  0.1769E+01
 -18.898  0.4124E+00  0.1773E+01
 -18.888  0.4121E+00  0.1777E+01
 -18.878  0.4118E+00  0.1781E+01
 -18.868  0.4115E+00  0.1785E+01
 -18.858  0.4112E+00  0.1789E+01
 -18.848  0.4110E+00  0.1793E+01
 -18.838  0.4108E+00  0.1798E+01
 -18.828  0.4106E+00  0.1802E+01
 -18.818  0.4104E+00  0.1806E+01
 -18.808  0.4102E+00  0.1810E+01
 -18.798  0.4100E+00  0.1814E+01
 -18.788  0.4099E+00  0.1818E+01
 -18.778  0.4098E+00  0.1822E+01
 -18.768  0.4097E+00  0.1826E+01
 -18.758  0.4097E+00  0.1830E+01
 -18.748  0.4098E+00  0.1834E+01
 -18.738  0.4099E+00  0.1839E+01
 -18.728  0.4102E+00  0.1843E+01
 -18.718  0.4106E+00  0.1847E+01
 -18.708  0.4112E+00  0.1851E+01
 -18.698  0.4122E+00  0.1855E+01
 -18.688  0.4135E+00  0.1859E+01
 -18.678  0.4153E+00  0.1863E+01
 -18.668  0.4176E+00  0.1868E+01
 -18.658  0.4205E+00  0.1872E+01
 -18.648  0.4242E+00  0.1876E+01
 -18.638  0.4287E+00  0.1880E+01
 -18.628  0.4342E+00  0.1885E+01
 -18.618  0.4405E+00  0.1889E+01
 -18.608  0.4478E+00  0.1893E+01
 -18.598  0.4559E+00  0.1898E+01
 -18.588  0.4648E+00  0.1903E+01
 -18.578  0.4743E+00  0.1907E+01
 -18.568  0.4839E+00  0.1912E+01
 -18.558  0.4935E+00  0.1917E+01
 -18.548  0.5026E+00  0.1922E+01
 -18.538  0.5106E+00  0.1927E+01
 -18.528  0.5169E+00  0.1932E+01
 -18.518  0.5211E+00  0.1938E+01
 -18.508  0.5225E+00  0.1943E+01
 -18.498  0.5206E+00  0.1948E+01
 -18.488  0.5149E+00  0.1953E+01
 -18.478  0.5050E+00  0.1958E+01
 -18.468  0.4906E+00  0.1963E+01
 -18.458  0.4717E+00  0.1968E+01
 -18.448  0.4484E+00  0.1972E+01
 -18.438  0.4209E+00  0.1977E+01
 -18.428  0.3896E+00  0.1981E+01
 -18.418  0.3551E+00  0.1984E+01
 -18.408  0.3182E+00  0.1987E+01
 -18.398  0.2798E+00  0.1990E+01
 -18.388  0.2407E+00  0.1992E+01
 -18.378  0.2019E+00  0.1994E+01
 -18.368  0.1645E+00  0.1996E+01
 -18.358  0.1293E+00  0.1997E+01
 -18.348  0.9733E-01  0.1998E+01
 -18.338  0.6926E-01  0.1999E+01
 -18.328  0.4582E-01  0.2000E+01
 -18.318  0.2758E-01  0.2000E+01
 -18.308  0.1497E-01  0.2000E+01
 -18.298  0.8267E-02  0.2000E+01
 -18.288  0.7635E-02  0.2000E+01
 -18.278  0.1307E-01  0.2000E+01
 -18.268  0.2444E-01  0.2001E+01
 -18.258  0.4144E-01  0.2001E+01
 -18.248  0.6368E-01  0.2002E+01
 -18.238  0.9058E-01  0.2002E+01
 -18.228  0.1215E+00  0.2004E+01
 -18.218  0.1556E+00  0.2005E+01
 -18.208  0.1920E+00  0.2007E+01
 -18.198  0.2299E+00  0.2009E+01
 -18.188  0.2681E+00  0.2012E+01
 -18.178  0.3059E+00  0.2015E+01
 -18.168  0.3421E+00  0.2019E+01
 -18.158  0.3761E+00  0.2022E+01
 -18.148  0.4069E+00  0.2026E+01
 -18.138  0.4341E+00  0.2031E+01
 -18.128  0.4572E+00  0.2035E+01
 -18.118  0.4758E+00  0.2040E+01
 -18.108  0.4899E+00  0.2045E+01
 -18.098  0.4996E+00  0.2050E+01
 -18.088  0.5051E+00  0.2055E+01
 -18.078  0.5067E+00  0.2060E+01
 -18.068  0.5049E+00  0.2065E+01
 -18.058  0.5003E+00  0.2070E+01
 -18.048  0.4935E+00  0.2075E+01
 -18.038  0.4850E+00  0.2080E+01
 -18.028  0.4753E+00  0.2085E+01
 -18.018  0.4651E+00  0.2089E+01
 -18.008  0.4547E+00  0.2094E+01
 -17.998  0.4445E+00  0.2098E+01
 -17.988  0.4348E+00  0.2103E+01
 -17.978  0.4259E+00  0.2107E+01
 -17.968  0.4177E+00  0.2111E+01
 -17.958  0.4105E+00  0.2115E+01
 -17.948  0.4043E+00  0.2119E+01
 -17.938  0.3989E+00  0.2123E+01
 -17.928  0.3944E+00  0.2127E+01
 -17.918  0.3906E+00  0.2131E+01
 -17.908  0.3874E+00  0.2135E+01
 -17.898  0.3849E+00  0.2139E+01
 -17.888  0.3828E+00  0.2143E+01
 -17.878  0.3810E+00  0.2147E+01
 -17.868  0.3796E+00  0.2150E+01
 -17.858  0.3784E+00  0.2154E+01
 -17.848  0.3773E+00  0.2158E+01
 -17.838  0.3764E+00  0.2162E+01
 -17.828  0.3756E+00  0.2165E+01
 -17.818  0.3748E+00  0.2169E+01
 -17.808  0.3741E+00  0.2173E+01
 -17.798  0.3735E+00  0.2177E+01
 -17.788  0.3728E+00  0.2180E+01
 -17.778  0.3722E+00  0.2184E+01
 -17.768  0.3716E+00  0.2188E+01
 -17.758  0.3710E+00  0.2191E+01
 -17.748  0.3705E+00  0.2195E+01
 -17.738  0.3699E+00  0.2199E+01
 -17.728  0.3694E+00  0.2203E+01
 -17.718  0.3688E+00  0.2206E+01
 -17.708  0.3683E+00  0.2210E+01
 -17.698  0.3678E+00  0.2214E+01
 -17.688  0.3673E+00  0.2217E+01
 -17.678  0.3669E+00  0.2221E+01
 -17.668  0.3664E+00  0.2225E+01
 -17.658  0.3660E+00  0.2228E+01
 -17.648  0.3656E+00  0.2232E+01
 -17.638  0.3651E+00  0.2236E+01
 -17.628  0.3647E+00  0.2239E+01
 -17.618  0.3643E+00  0.2243E+01
 -17.608  0.3640E+00  0.2247E+01
 -17.598  0.3636E+00  0.2250E+01
 -17.588  0.3632E+00  0.2254E+01
 -17.578  0.3629E+00  0.2257E+01
 -17.568  0.3626E+00  0.2261E+01
 -17.558  0.3622E+00  0.2265E+01
 -17.548  0.3619E+00  0.2268E+01
 -17.538  0.3616E+00  0.2272E+01
 -17.528  0.3613E+00  0.2276E+01
 -17.518  0.3610E+00  0.2279E+01
 -17.508  0.3607E+00  0.2283E+01
 -17.498  0.3605E+00  0.2286E+01
 -17.488  0.3602E+00  0.2290E+01
 -17.478  0.3599E+00  0.2294E+01
 -17.468  0.3597E+00  0.2297E+01
 -17.458  0.3594E+00  0.2301E+01
 -17.448  0.3592E+00  0.2304E+01
 -17.438  0.3590E+00  0.2308E+01
 -17.428  0.3588E+00  0.2312E+01
 -17.418  0.3585E+00  0.2315E+01
 -17.408  0.3583E+00  0.2319E+01
 -17.398  0.3581E+00  0.2322E+01
 -17.388  0.3579E+00  0.2326E+01
 -17.378  0.3577E+00  0.2329E+01
 -17.368  0.3575E+00  0.2333E+01
 -17.358  0.3573E+00  0.2337E+01
 -17.348  0.3572E+00  0.2340E+01
 -17.338  0.3570E+00  0.2344E+01
 -17.328  0.3568E+00  0.2347E+01
 -17.318  0.3567E+00  0.2351E+01
 -17.308  0.3565E+00  0.2354E+01
 -17.298  0.3564E+00  0.2358E+01
 -17.288  0.3562E+00  0.2362E+01
 -17.278  0.3561E+00  0.2365E+01
 -17.268  0.3559E+00  0.2369E+01
 -17.258  0.3558E+00  0.2372E+01
 -17.248  0.3557E+00  0.2376E+01
 -17.238  0.3555E+00  0.2379E+01
 -17.228  0.3554E+00  0.2383E+01
 -17.218  0.3553E+00  0.2386E+01
 -17.208  0.3552E+00  0.2390E+01
 -17.198  0.3551E+00  0.2394E+01
 -17.188  0.3550E+00  0.2397E+01
 -17.178  0.3549E+00  0.2401E+01
 -17.168  0.3548E+00  0.2404E+01
 -17.158  0.3547E+00  0.2408E+01
 -17.148  0.3546E+00  0.2411E+01
 -17.138  0.3545E+00  0.2415E+01
 -17.128  0.3544E+00  0.2418E+01
 -17.118  0.3543E+00  0.2422E+01
 -17.108  0.3542E+00  0.2425E+01
 -17.098  0.3542E+00  0.2429E+01
 -17.088  0.3541E+00  0.2433E+01
 -17.078  0.3541E+00  0.2436E+01
 -17.068  0.3540E+00  0.2440E+01
 -17.058  0.3539E+00  0.2443E+01
 -17.048  0.3539E+00  0.2447E+01
 -17.038  0.3538E+00  0.2450E+01
 -17.028  0.3538E+00  0.2454E+01
 -17.018  0.3537E+00  0.2457E+01
 -17.008  0.3537E+00  0.2461E+01
 -16.998  0.3537E+00  0.2464E+01
 -16.988  0.3536E+00  0.2468E+01
 -16.978  0.3536E+00  0.2471E+01
 -16.968  0.3536E+00  0.2475E+01
 -16.958  0.3536E+00  0.2479E+01
 -16.948  0.3535E+00  0.2482E+01
 -16.938  0.3535E+00  0.2486E+01
 -16.928  0.3535E+00  0.2489E+01
 -16.918  0.3535E+00  0.2493E+01
 -16.908  0.3535E+00  0.2496E+01
 -16.898  0.3535E+00  0.2500E+01
 -16.888  0.3535E+00  0.2503E+01
 -16.878  0.3535E+00  0.2507E+01
 -16.868  0.3535E+00  0.2510E+01
 -16.858  0.3535E+00  0.2514E+01
 -16.848  0.3535E+00  0.2517E+01
 -16.838  0.3536E+00  0.2521E+01
 -16.828  0.3536E+00  0.2524E+01
 -16.818  0.3536E+00  0.2528E+01
 -16.808  0.3536E+00  0.2532E+01
 -16.798  0.3537E+00  0.2535E+01
 -16.788  0.3537E+00  0.2539E+01
 -16.778  0.3537E+00  0.2542E+01
 -16.768  0.3538E+00  0.2546E+01
 -16.758  0.3538E+00  0.2549E+01
 -16.748  0.3539E+00  0.2553E+01
 -16.738  0.3540E+00  0.2556E+01
 -16.728  0.3540E+00  0.2560E+01
 -16.718  0.3541E+00  0.2563E+01
 -16.708  0.3541E+00  0.2567E+01
 -16.698  0.3542E+00  0.2570E+01
 -16.688  0.3543E+00  0.2574E+01
 -16.678  0.3543E+00  0.2578E+01
 -16.668  0.3544E+00  0.2581E+01
 -16.658  0.3545E+00  0.2585E+01
 -16.648  0.3546E+00  0.2588E+01
 -16.638  0.3547E+00  0.2592E+01
 -16.628  0.3548E+00  0.2595E+01
 -16.618  0.3549E+00  0.2599E+01
 -16.608  0.3550E+00  0.2602E+01
 -16.598  0.3551E+00  0.2606E+01
 -16.588  0.3552E+00  0.2609E+01
 -16.578  0.3553E+00  0.2613E+01
 -16.568  0.3554E+00  0.2617E+01
 -16.558  0.3555E+00  0.2620E+01
 -16.548  0.3556E+00  0.2624E+01
 -16.538  0.3557E+00  0.2627E+01
 -16.528  0.3559E+00  0.2631E+01
 -16.518  0.3560E+00  0.2634E+01
 -16.508  0.3561E+00  0.2638E+01
 -16.498  0.3563E+00  0.2642E+01
 -16.488  0.3564E+00  0.2645E+01
 -16.478  0.3566E+00  0.2649E+01
 -16.468  0.3567E+00  0.2652E+01
 -16.458  0.3569E+00  0.2656E+01
 -16.448  0.3570E+00  0.2659E+01
 -16.438  0.3572E+00  0.2663E+01
 -16.428  0.3573E+00  0.2666E+01
 -16.418  0.3575E+00  0.2670E+01
 -16.408  0.3577E+00  0.2674E+01
 -16.398  0.3579E+00  0.2677E+01
 -16.388  0.3580E+00  0.2681E+01
 -16.378  0.3582E+00  0.2684E+01
 -16.368  0.3584E+00  0.2688E+01
 -16.358  0.3586E+00  0.2692E+01
 -16.348  0.3588E+00  0.2695E+01
 -16.338  0.3590E+00  0.2699E+01
 -16.328  0.3592E+00  0.2702E+01
 -16.318  0.3594E+00  0.2706E+01
 -16.308  0.3596E+00  0.2710E+01
 -16.298  0.3599E+00  0.2713E+01
 -16.288  0.3601E+00  0.2717E+01
 -16.278  0.3603E+00  0.2720E+01
 -16.268  0.3605E+00  0.2724E+01
 -16.258  0.3608E+00  0.2728E+01
 -16.248  0.3610E+00  0.2731E+01
 -16.238  0.3612E+00  0.2735E+01
 -16.228  0.3615E+00  0.2738E+01
 -16.218  0.3617E+00  0.2742E+01
 -16.208  0.3620E+00  0.2746E+01
 -16.198  0.3623E+00  0.2749E+01
 -16.188  0.3625E+00  0.2753E+01
 -16.178  0.3628E+00  0.2756E+01
 -16.168  0.3631E+00  0.2760E+01
 -16.158  0.3634E+00  0.2764E+01
 -16.148  0.3637E+00  0.2767E+01
 -16.138  0.3640E+00  0.2771E+01
 -16.128  0.3643E+00  0.2775E+01
 -16.118  0.3646E+00  0.2778E+01
 -16.108  0.3649E+00  0.2782E+01
 -16.098  0.3652E+00  0.2786E+01
 -16.088  0.3655E+00  0.2789E+01
 -16.078  0.3658E+00  0.2793E+01
 -16.068  0.3661E+00  0.2797E+01
 -16.058  0.3665E+00  0.2800E+01
 -16.048  0.3668E+00  0.2804E+01
 -16.038  0.3672E+00  0.2808E+01
 -16.028  0.3675E+00  0.2811E+01
 -16.018  0.3679E+00  0.2815E+01
 -16.008  0.3682E+00  0.2819E+01
 -15.998  0.3686E+00  0.2822E+01
 -15.988  0.3689E+00  0.2826E+01
 -15.978  0.3693E+00  0.2830E+01
 -15.968  0.3697E+00  0.2833E+01
 -15.958  0.3701E+00  0.2837E+01
 -15.948  0.3705E+00  0.2841E+01
 -15.938  0.3709E+00  0.2845E+01
 -15.928  0.3713E+00  0.2848E+01
 -15.918  0.3717E+00  0.2852E+01
 -15.908  0.3721E+00  0.2856E+01
 -15.898  0.3725E+00  0.2859E+01
 -15.888  0.3730E+00  0.2863E+01
 -15.878  0.3734E+00  0.2867E+01
 -15.868  0.3739E+00  0.2871E+01
 -15.858  0.3743E+00  0.2874E+01
 -15.848  0.3748E+00  0.2878E+01
 -15.838  0.3752E+00  0.2882E+01
 -15.828  0.3757E+00  0.2886E+01
 -15.818  0.3762E+00  0.2889E+01
 -15.808  0.3767E+00  0.2893E+01
 -15.798  0.3772E+00  0.2897E+01
 -15.788  0.3777E+00  0.2901E+01
 -15.778  0.3782E+00  0.2904E+01
 -15.768  0.3787E+00  0.2908E+01
 -15.758  0.3792E+00  0.2912E+01
 -15.748  0.3797E+00  0.2916E+01
 -15.738  0.3803E+00  0.2920E+01
 -15.728  0.3808E+00  0.2923E+01
 -15.718  0.3814E+00  0.2927E+01
 -15.708  0.3819E+00  0.2931E+01
 -15.698  0.3825E+00  0.2935E+01
 -15.688  0.3831E+00  0.2939E+01
 -15.678  0.3837E+00  0.2943E+01
 -15.668  0.3843E+00  0.2946E+01
 -15.658  0.3849E+00  0.2950E+01
 -15.648  0.3855E+00  0.2954E+01
 -15.638  0.3861E+00  0.2958E+01
 -15.628  0.3867E+00  0.2962E+01
 -15.618  0.3874E+00  0.2966E+01
 -15.608  0.3880E+00  0.2970E+01
 -15.598  0.3887E+00  0.2973E+01
 -15.588  0.3893E+00  0.2977E+01
 -15.578  0.3900E+00  0.2981E+01
 -15.568  0.3907E+00  0.2985E+01
 -15.558  0.3914E+00  0.2989E+01
 -15.548  0.3921E+00  0.2993E+01
 -15.538  0.3928E+00  0.2997E+01
 -15.528  0.3935E+00  0.3001E+01
 -15.518  0.3943E+00  0.3005E+01
 -15.508  0.3950E+00  0.3009E+01
 -15.498  0.3958E+00  0.3013E+01
 -15.488  0.3966E+00  0.3017E+01
 -15.478  0.3973E+00  0.3021E+01
 -15.468  0.3981E+00  0.3025E+01
 -15.458  0.3989E+00  0.3029E+01
 -15.448  0.3998E+00  0.3033E+01
 -15.438  0.4006E+00  0.3037E+01
 -15.428  0.4014E+00  0.3041E+01
 -15.418  0.4023E+00  0.3045E+01
 -15.408  0.4032E+00  0.3049E+01
 -15.398  0.4040E+00  0.3053E+01
 -15.388  0.4049E+00  0.3057E+01
 -15.378  0.4058E+00  0.3061E+01
 -15.368  0.4068E+00  0.3065E+01
 -15.358  0.4077E+00  0.3069E+01
 -15.348  0.4087E+00  0.3073E+01
 -15.338  0.4096E+00  0.3077E+01
 -15.328  0.4106E+00  0.3081E+01
 -15.318  0.4116E+00  0.3085E+01
 -15.308  0.4126E+00  0.3090E+01
 -15.298  0.4136E+00  0.3094E+01
 -15.288  0.4147E+00  0.3098E+01
 -15.278  0.4157E+00  0.3102E+01
 -15.268  0.4168E+00  0.3106E+01
 -15.258  0.4179E+00  0.3110E+01
 -15.248  0.4190E+00  0.3115E+01
 -15.238  0.4201E+00  0.3119E+01
 -15.228  0.4213E+00  0.3123E+01
 -15.218  0.4225E+00  0.3127E+01
 -15.208  0.4236E+00  0.3131E+01
 -15.198  0.4248E+00  0.3136E+01
 -15.188  0.4261E+00  0.3140E+01
 -15.178  0.4273E+00  0.3144E+01
 -15.168  0.4286E+00  0.3148E+01
 -15.158  0.4299E+00  0.3153E+01
 -15.148  0.4312E+00  0.3157E+01
 -15.138  0.4325E+00  0.3161E+01
 -15.128  0.4339E+00  0.3166E+01
 -15.118  0.4352E+00  0.3170E+01
 -15.108  0.4366E+00  0.3174E+01
 -15.098  0.4381E+00  0.3179E+01
 -15.088  0.4395E+00  0.3183E+01
 -15.078  0.4410E+00  0.3188E+01
 -15.068  0.4425E+00  0.3192E+01
 -15.058  0.4440E+00  0.3196E+01
 -15.048  0.4456E+00  0.3201E+01
 -15.038  0.4472E+00  0.3205E+01
 -15.028  0.4488E+00  0.3210E+01
 -15.018  0.4504E+00  0.3214E+01
 -15.008  0.4521E+00  0.3219E+01
 -14.998  0.4538E+00  0.3223E+01
 -14.988  0.4556E+00  0.3228E+01
 -14.978  0.4573E+00  0.3233E+01
 -14.968  0.4591E+00  0.3237E+01
 -14.958  0.4610E+00  0.3242E+01
 -14.948  0.4628E+00  0.3246E+01
 -14.938  0.4648E+00  0.3251E+01
 -14.928  0.4667E+00  0.3256E+01
 -14.918  0.4687E+00  0.3260E+01
 -14.908  0.4707E+00  0.3265E+01
 -14.898  0.4728E+00  0.3270E+01
 -14.888  0.4749E+00  0.3275E+01
 -14.878  0.4771E+00  0.3279E+01
 -14.868  0.4793E+00  0.3284E+01
 -14.858  0.4815E+00  0.3289E+01
 -14.848  0.4838E+00  0.3294E+01
 -14.838  0.4861E+00  0.3299E+01
 -14.828  0.4885E+00  0.3304E+01
 -14.818  0.4910E+00  0.3308E+01
 -14.808  0.4935E+00  0.3313E+01
 -14.798  0.4960E+00  0.3318E+01
 -14.788  0.4987E+00  0.3323E+01
 -14.778  0.5013E+00  0.3328E+01
 -14.768  0.5041E+00  0.3333E+01
 -14.758  0.5069E+00  0.3338E+01
 -14.748  0.5097E+00  0.3344E+01
 -14.738  0.5127E+00  0.3349E+01
 -14.728  0.5157E+00  0.3354E+01
 -14.718  0.5188E+00  0.3359E+01
 -14.708  0.5219E+00  0.3364E+01
 -14.698  0.5252E+00  0.3370E+01
 -14.688  0.5285E+00  0.3375E+01
 -14.678  0.5319E+00  0.3380E+01
 -14.668  0.5354E+00  0.3385E+01
 -14.658  0.5390E+00  0.3391E+01
 -14.648  0.5427E+00  0.3396E+01
 -14.638  0.5465E+00  0.3402E+01
 -14.628  0.5504E+00  0.3407E+01
 -14.618  0.5544E+00  0.3413E+01
 -14.608  0.5585E+00  0.3418E+01
 -14.598  0.5627E+00  0.3424E+01
 -14.588  0.5670E+00  0.3430E+01
 -14.578  0.5715E+00  0.3435E+01
 -14.568  0.5761E+00  0.3441E+01
 -14.558  0.5809E+00  0.3447E+01
 -14.548  0.5858E+00  0.3453E+01
 -14.538  0.5908E+00  0.3459E+01
 -14.528  0.5960E+00  0.3465E+01
 -14.518  0.6013E+00  0.3471E+01
 -14.508  0.6068E+00  0.3477E+01
 -14.498  0.6125E+00  0.3483E+01
 -14.488  0.6184E+00  0.3489E+01
 -14.478  0.6244E+00  0.3495E+01
 -14.468  0.6306E+00  0.3502E+01
 -14.458  0.6370E+00  0.3508E+01
 -14.448  0.6436E+00  0.3514E+01
 -14.438  0.6503E+00  0.3521E+01
 -14.428  0.6573E+00  0.3528E+01
 -14.418  0.6646E+00  0.3534E+01
 -14.408  0.6721E+00  0.3541E+01
 -14.398  0.6799E+00  0.3548E+01
 -14.388  0.6880E+00  0.3555E+01
 -14.378  0.6967E+00  0.3562E+01
 -14.368  0.7059E+00  0.3569E+01
 -14.358  0.7158E+00  0.3576E+01
 -14.348  0.7266E+00  0.3583E+01
 -14.338  0.7386E+00  0.3590E+01
 -14.328  0.7521E+00  0.3598E+01
 -14.318  0.7673E+00  0.3606E+01
 -14.308  0.7848E+00  0.3613E+01
 -14.298  0.8050E+00  0.3622E+01
 -14.288  0.8283E+00  0.3630E+01
 -14.278  0.8553E+00  0.3638E+01
 -14.268  0.8863E+00  0.3647E+01
 -14.258  0.9219E+00  0.3656E+01
 -14.248  0.9622E+00  0.3666E+01
 -14.238  0.1007E+01  0.3676E+01
 -14.228  0.1057E+01  0.3687E+01
 -14.218  0.1112E+01  0.3698E+01
 -14.208  0.1170E+01  0.3710E+01
 -14.198  0.1231E+01  0.3722E+01
 -14.188  0.1294E+01  0.3735E+01
 -14.178  0.1356E+01  0.3748E+01
 -14.168  0.1416E+01  0.3762E+01
 -14.158  0.1472E+01  0.3777E+01
 -14.148  0.1521E+01  0.3792E+01
 -14.138  0.1561E+01  0.3808E+01
 -14.128  0.1590E+01  0.3824E+01
 -14.118  0.1605E+01  0.3840E+01
 -14.108  0.1605E+01  0.3856E+01
 -14.098  0.1588E+01  0.3872E+01
 -14.088  0.1554E+01  0.3887E+01
 -14.078  0.1503E+01  0.3902E+01
 -14.068  0.1435E+01  0.3917E+01
 -14.058  0.1352E+01  0.3930E+01
 -14.048  0.1255E+01  0.3943E+01
 -14.038  0.1148E+01  0.3954E+01
 -14.028  0.1033E+01  0.3965E+01
 -14.018  0.9128E+00  0.3974E+01
 -14.008  0.7911E+00  0.3982E+01
 -13.998  0.6708E+00  0.3988E+01
 -13.988  0.5548E+00  0.3994E+01
 -13.978  0.4457E+00  0.3998E+01
 -13.968  0.3454E+00  0.4002E+01
 -13.958  0.2555E+00  0.4004E+01
 -13.948  0.1770E+00  0.4006E+01
 -13.938  0.1103E+00  0.4007E+01
 -13.928  0.5540E-01  0.4008E+01
 -13.918  0.1173E-01  0.4008E+01
 -13.908 -0.2151E-01  0.4008E+01
 -13.898 -0.4542E-01  0.4007E+01
 -13.888 -0.6125E-01  0.4007E+01
 -13.878 -0.7033E-01  0.4006E+01
 -13.868 -0.7400E-01  0.4005E+01
 -13.858 -0.7350E-01  0.4005E+01
 -13.848 -0.6998E-01  0.4004E+01
 -13.838 -0.6443E-01  0.4003E+01
 -13.828 -0.5769E-01  0.4003E+01
 -13.818 -0.5041E-01  0.4002E+01
 -13.808 -0.4312E-01  0.4002E+01
 -13.798 -0.3616E-01  0.4001E+01
 -13.788 -0.2978E-01  0.4001E+01
 -13.778 -0.2411E-01  0.4001E+01
 -13.768 -0.1920E-01  0.4001E+01
 -13.758 -0.1506E-01  0.4000E+01
 -13.748 -0.1163E-01  0.4000E+01
 -13.738 -0.8859E-02  0.4000E+01
 -13.728 -0.6652E-02  0.4000E+01
 -13.718 -0.4926E-02  0.4000E+01
 -13.708 -0.3600E-02  0.4000E+01
 -13.698 -0.2596E-02  0.4000E+01
 -13.688 -0.1848E-02  0.4000E+01
 -13.678 -0.1298E-02  0.4000E+01
 -13.668 -0.9010E-03  0.4000E+01
 -13.658 -0.6174E-03  0.4000E+01
 -13.648 -0.4179E-03  0.4000E+01
 -13.638 -0.2794E-03  0.4000E+01
 -13.628 -0.1845E-03  0.4000E+01
 -13.618 -0.1204E-03  0.4000E+01
 -13.608 -0.7764E-04  0.4000E+01
 -13.598 -0.4946E-04  0.4000E+01
 -13.588 -0.3114E-04  0.4000E+01
 -13.578 -0.1938E-04  0.4000E+01
 -13.568 -0.1192E-04  0.4000E+01
 -13.558 -0.7242E-05  0.4000E+01
 -13.548 -0.4351E-05  0.4000E+01
 -13.538 -0.2584E-05  0.4000E+01
 -13.528 -0.1516E-05  0.4000E+01
 -13.518 -0.8800E-06  0.4000E+01
 -13.508 -0.5048E-06  0.4000E+01
 -13.498 -0.2862E-06  0.4000E+01
 -13.488 -0.1605E-06  0.4000E+01
 -13.478 -0.8895E-07  0.4000E+01
 -13.468 -0.4875E-07  0.4000E+01
 -13.458 -0.2641E-07  0.4000E+01
 -13.448 -0.1415E-07  0.4000E+01
 -13.438 -0.7494E-08  0.4000E+01
 -13.428 -0.3925E-08  0.4000E+01
 -13.418 -0.2033E-08  0.4000E+01
 -13.408 -0.1041E-08  0.4000E+01
 -13.398 -0.5270E-09  0.4000E+01
 -13.388 -0.2639E-09  0.4000E+01
 -13.378 -0.1306E-09  0.4000E+01
 -13.368 -0.6397E-10  0.4000E+01
 -13.358 -0.3097E-10  0.4000E+01
 -13.348 -0.1483E-10  0.4000E+01
 -13.338 -0.7020E-11  0.4000E+01
 -13.328 -0.3287E-11  0.4000E+01
 -13.318 -0.1522E-11  0.4000E+01
 -13.308 -0.6969E-12  0.4000E+01
 -13.298 -0.3156E-12  0.4000E+01
 -13.288 -0.1413E-12  0.4000E+01
 -13.278 -0.6259E-13  0.4000E+01
 -13.268 -0.2742E-13  0.4000E+01
 -13.258 -0.1188E-13  0.4000E+01
 -13.248 -0.5088E-14  0.4000E+01
 -13.238 -0.2156E-14  0.4000E+01
 -13.228 -0.9034E-15  0.4000E+01
 -13.218 -0.3744E-15  0.4000E+01
 -13.208 -0.1535E-15  0.4000E+01
 -13.198 -0.6221E-16  0.4000E+01
 -13.188 -0.2494E-16  0.4000E+01
 -13.178 -0.9890E-17  0.4000E+01
 -13.168 -0.3879E-17  0.4000E+01
 -13.158 -0.1505E-17  0.4000E+01
 -13.148 -0.5772E-18  0.4000E+01
 -13.138 -0.2190E-18  0.4000E+01
 -13.128 -0.8220E-19  0.4000E+01
 -13.118 -0.3051E-19  0.4000E+01
 -13.108 -0.1120E-19  0.4000E+01
 -13.098 -0.4068E-20  0.4000E+01
 -13.088 -0.1461E-20  0.4000E+01
 -13.078 -0.5189E-21  0.4000E+01
 -13.068 -0.1823E-21  0.4000E+01
 -13.058 -0.6337E-22  0.4000E+01
 -13.048 -0.2178E-22  0.4000E+01
 -13.038 -0.7405E-23  0.4000E+01
 -13.028 -0.2490E-23  0.4000E+01
 -13.018 -0.8282E-24  0.4000E+01
 -13.008 -0.2725E-24  0.4000E+01
 -12.998 -0.8867E-25  0.4000E+01
 -12.988 -0.2854E-25  0.4000E+01
 -12.978 -0.9085E-26  0.4000E+01
 -12.968 -0.2861E-26  0.4000E+01
 -12.958 -0.8911E-27  0.4000E+01
 -12.948 -0.2745E-27  0.4000E+01
 -12.938 -0.8365E-28  0.4000E+01
 -12.928 -0.2521E-28  0.4000E+01
 -12.918 -0.7517E-29  0.4000E+01
 -12.908 -0.2217E-29  0.4000E+01
 -12.898 -0.6466E-30  0.4000E+01
 -12.888 -0.1866E-30  0.4000E+01
 -12.878 -0.5324E-31  0.4000E+01
 -12.868 -0.1503E-31  0.4000E+01
 -12.858 -0.4197E-32  0.4000E+01
 -12.848 -0.1159E-32  0.4000E+01
 -12.838 -0.3167E-33  0.4000E+01
 -12.828 -0.8557E-34  0.4000E+01
 -12.818 -0.2287E-34  0.4000E+01
 -12.808 -0.6048E-35  0.4000E+01
 -12.798 -0.1582E-35  0.4000E+01
 -12.788 -0.4092E-36  0.4000E+01
 -12.778 -0.1047E-36  0.4000E+01
 -12.768 -0.2650E-37  0.4000E+01
 -12.758 -0.6635E-38  0.4000E+01
 -12.748 -0.1643E-38  0.4000E+01
 -12.738 -0.4026E-39  0.4000E+01
 -12.728 -0.9755E-40  0.4000E+01
 -12.718 -0.2338E-40  0.4000E+01
 -12.708 -0.5544E-41  0.4000E+01
 -12.698 -0.1300E-41  0.4000E+01
 -12.688 -0.3016E-42  0.4000E+01
 -12.678 -0.6922E-43  0.4000E+01
 -12.668 -0.1571E-43  0.4000E+01
 -12.658 -0.3528E-44  0.4000E+01
 -12.648 -0.7835E-45  0.4000E+01
 -12.638 -0.1721E-45  0.4000E+01
 -12.628 -0.3741E-46  0.4000E+01
 -12.618 -0.8042E-47  0.4000E+01
 -12.608 -0.1710E-47  0.4000E+01
 -12.598 -0.3597E-48  0.4000E+01
 -12.588 -0.7484E-49  0.4000E+01
 -12.578 -0.1540E-49  0.4000E+01
 -12.568 -0.3136E-50  0.4000E+01
 -12.558 -0.6316E-51  0.4000E+01
 -12.548 -0.1258E-51  0.4000E+01
 -12.538 -0.2479E-52  0.4000E+01
 -12.528 -0.4833E-53  0.4000E+01
 -12.518 -0.9319E-54  0.4000E+01
 -12.508 -0.1777E-54  0.4000E+01
 -12.498 -0.3353E-55  0.4000E+01
 -12.488 -0.6259E-56  0.4000E+01
 -12.478 -0.1155E-56  0.4000E+01
 -12.468 -0.2110E-57  0.4000E+01
 -12.458 -0.3812E-58  0.4000E+01
 -12.448 -0.6811E-59  0.4000E+01
 -12.438 -0.1204E-59  0.4000E+01
 -12.428 -0.2105E-60  0.4000E+01
 -12.418 -0.3641E-61  0.4000E+01
 -12.408 -0.6230E-62  0.4000E+01
 -12.398 -0.1054E-62  0.4000E+01
 -12.388 -0.1765E-63  0.4000E+01
 -12.378 -0.2924E-64  0.4000E+01
 -12.368 -0.4790E-65  0.4000E+01
 -12.358 -0.7762E-66  0.4000E+01
 -12.348 -0.1244E-66  0.4000E+01
 -12.338 -0.1973E-67  0.4000E+01
 -12.328 -0.3095E-68  0.4000E+01
 -12.318 -0.4802E-69  0.4000E+01
 -12.308 -0.7371E-70  0.4000E+01
 -12.298 -0.1119E-70  0.4000E+01
 -12.288 -0.1681E-71  0.4000E+01
 -12.278 -0.2497E-72  0.4000E+01
 -12.268 -0.3670E-73  0.4000E+01
 -12.258 -0.5336E-74  0.4000E+01
 -12.248 -0.7674E-75  0.4000E+01
 -12.238 -0.1092E-75  0.4000E+01
 -12.228 -0.1536E-76  0.4000E+01
 -12.218 -0.2139E-77  0.4000E+01
 -12.208 -0.2952E-78  0.4000E+01
 -12.198 -0.4179E-79  0.4000E+01
 -12.188 -0.1482E-79  0.4000E+01
 -12.178 -0.6767E-79  0.4000E+01
 -12.168 -0.4894E-78  0.4000E+01
 -12.158 -0.3556E-77  0.4000E+01
 -12.148 -0.2558E-76  0.4000E+01
 -12.138 -0.1821E-75  0.4000E+01
 -12.128 -0.1282E-74  0.4000E+01
 -12.118 -0.8930E-74  0.4000E+01
 -12.108 -0.6153E-73  0.4000E+01
 -12.098 -0.4193E-72  0.4000E+01
 -12.088 -0.2827E-71  0.4000E+01
 -12.078 -0.1885E-70  0.4000E+01
 -12.068 -0.1244E-69  0.4000E+01
 -12.058 -0.8117E-69  0.4000E+01
 -12.048 -0.5240E-68  0.4000E+01
 -12.038 -0.3346E-67  0.4000E+01
 -12.028 -0.2114E-66  0.4000E+01
 -12.018 -0.1321E-65  0.4000E+01
 -12.008 -0.8164E-65  0.4000E+01
 -11.998 -0.4992E-64  0.4000E+01
 -11.988 -0.3019E-63  0.4000E+01
 -11.978 -0.1806E-62  0.4000E+01
 -11.968 -0.1069E-61  0.4000E+01
 -11.958 -0.6258E-61  0.4000E+01
 -11.948 -0.3624E-60  0.4000E+01
 -11.938 -0.2076E-59  0.4000E+01
 -11.928 -0.1177E-58  0.4000E+01
 -11.918 -0.6595E-58  0.4000E+01
 -11.908 -0.3657E-57  0.4000E+01
 -11.898 -0.2006E-56  0.4000E+01
 -11.888 -0.1088E-55  0.4000E+01
 -11.878 -0.5841E-55  0.4000E+01
 -11.868 -0.3101E-54  0.4000E+01
 -11.858 -0.1629E-53  0.4000E+01
 -11.848 -0.8460E-53  0.4000E+01
 -11.838 -0.4347E-52  0.4000E+01
 -11.828 -0.2210E-51  0.4000E+01
 -11.818 -0.1111E-50  0.4000E+01
 -11.808 -0.5527E-50  0.4000E+01
 -11.798 -0.2719E-49  0.4000E+01
 -11.788 -0.1323E-48  0.4000E+01
 -11.778 -0.6371E-48  0.4000E+01
 -11.768 -0.3034E-47  0.4000E+01
 -11.758 -0.1429E-46  0.4000E+01
 -11.748 -0.6659E-46  0.4000E+01
 -11.738 -0.3069E-45  0.4000E+01
 -11.728 -0.1399E-44  0.4000E+01
 -11.718 -0.6311E-44  0.4000E+01
 -11.708 -0.2815E-43  0.4000E+01
 -11.698 -0.1242E-42  0.4000E+01
 -11.688 -0.5423E-42  0.4000E+01
 -11.678 -0.2341E-41  0.4000E+01
 -11.668 -0.1000E-40  0.4000E+01
 -11.658 -0.4225E-40  0.4000E+01
 -11.648 -0.1766E-39  0.4000E+01
 -11.638 -0.7298E-39  0.4000E+01
 -11.628 -0.2984E-38  0.4000E+01
 -11.618 -0.1207E-37  0.4000E+01
 -11.608 -0.4829E-37  0.4000E+01
 -11.598 -0.1911E-36  0.4000E+01
 -11.588 -0.7480E-36  0.4000E+01
 -11.578 -0.2896E-35  0.4000E+01
 -11.568 -0.1109E-34  0.4000E+01
 -11.558 -0.4203E-34  0.4000E+01
 -11.548 -0.1575E-33  0.4000E+01
 -11.538 -0.5838E-33  0.4000E+01
 -11.528 -0.2140E-32  0.4000E+01
 -11.518 -0.7763E-32  0.4000E+01
 -11.508 -0.2785E-31  0.4000E+01
 -11.498 -0.9881E-31  0.4000E+01
 -11.488 -0.3468E-30  0.4000E+01
 -11.478 -0.1204E-29  0.4000E+01
 -11.468 -0.4135E-29  0.4000E+01
 -11.458 -0.1404E-28  0.4000E+01
 -11.448 -0.4719E-28  0.4000E+01
 -11.438 -0.1568E-27  0.4000E+01
 -11.428 -0.5155E-27  0.4000E+01
 -11.418 -0.1676E-26  0.4000E+01
 -11.408 -0.5390E-26  0.4000E+01
 -11.398 -0.1715E-25  0.4000E+01
 -11.388 -0.5395E-25  0.4000E+01
 -11.378 -0.1679E-24  0.4000E+01
 -11.368 -0.5168E-24  0.4000E+01
 -11.358 -0.1574E-23  0.4000E+01
 -11.348 -0.4739E-23  0.4000E+01
 -11.338 -0.1412E-22  0.4000E+01
 -11.328 -0.4159E-22  0.4000E+01
 -11.318 -0.1212E-21  0.4000E+01
 -11.308 -0.3493E-21  0.4000E+01
 -11.298 -0.9960E-21  0.4000E+01
 -11.288 -0.2808E-20  0.4000E+01
 -11.278 -0.7833E-20  0.4000E+01
 -11.268 -0.2161E-19  0.4000E+01
 -11.258 -0.5895E-19  0.4000E+01
 -11.248 -0.1591E-18  0.4000E+01
 -11.238 -0.4246E-18  0.4000E+01
 -11.228 -0.1121E-17  0.4000E+01
 -11.218 -0.2927E-17  0.4000E+01
 -11.208 -0.7558E-17  0.4000E+01
 -11.198 -0.1930E-16  0.4000E+01
 -11.188 -0.4876E-16  0.4000E+01
 -11.178 -0.1218E-15  0.4000E+01
 -11.168 -0.3010E-15  0.4000E+01
 -11.158 -0.7357E-15  0.4000E+01
 -11.148 -0.1778E-14  0.4000E+01
 -11.138 -0.4250E-14  0.4000E+01
 -11.128 -0.1005E-13  0.4000E+01
 -11.118 -0.2349E-13  0.4000E+01
 -11.108 -0.5433E-13  0.4000E+01
 -11.098 -0.1242E-12  0.4000E+01
 -11.088 -0.2810E-12  0.4000E+01
 -11.078 -0.6285E-12  0.4000E+01
 -11.068 -0.1390E-11  0.4000E+01
 -11.058 -0.3041E-11  0.4000E+01
 -11.048 -0.6580E-11  0.4000E+01
 -11.038 -0.1408E-10  0.4000E+01
 -11.028 -0.2978E-10  0.4000E+01
 -11.018 -0.6231E-10  0.4000E+01
 -11.008 -0.1289E-09  0.4000E+01
 -10.998 -0.2638E-09  0.4000E+01
 -10.988 -0.5337E-09  0.4000E+01
 -10.978 -0.1068E-08  0.4000E+01
 -10.968 -0.2112E-08  0.4000E+01
 -10.958 -0.4132E-08  0.4000E+01
 -10.948 -0.7993E-08  0.4000E+01
 -10.938 -0.1529E-07  0.4000E+01
 -10.928 -0.2891E-07  0.4000E+01
 -10.918 -0.5406E-07  0.4000E+01
 -10.908 -0.9995E-07  0.4000E+01
 -10.898 -0.1827E-06  0.4000E+01
 -10.888 -0.3302E-06  0.4000E+01
 -10.878 -0.5900E-06  0.4000E+01
 -10.868 -0.1042E-05  0.4000E+01
 -10.858 -0.1820E-05  0.4000E+01
 -10.848 -0.3142E-05  0.4000E+01
 -10.838 -0.5362E-05  0.4000E+01
 -10.828 -0.9045E-05  0.4000E+01
 -10.818 -0.1508E-04  0.4000E+01
 -10.808 -0.2486E-04  0.4000E+01
 -10.798 -0.4050E-04  0.4000E+01
 -10.788 -0.6521E-04  0.4000E+01
 -10.778 -0.1038E-03  0.4000E+01
 -10.768 -0.1631E-03  0.4000E+01
 -10.758 -0.2535E-03  0.4000E+01
 -10.748 -0.3892E-03  0.4000E+01
 -10.738 -0.5903E-03  0.4000E+01
 -10.728 -0.8845E-03  0.4000E+01
 -10.718 -0.1309E-02  0.4000E+01
 -10.708 -0.1914E-02  0.4000E+01
 -10.698 -0.2764E-02  0.4000E+01
 -10.688 -0.3940E-02  0.4000E+01
 -10.678 -0.5546E-02  0.4000E+01
 -10.668 -0.7706E-02  0.4000E+01
 -10.658 -0.1057E-01  0.4000E+01
 -10.648 -0.1430E-01  0.4000E+01
 -10.638 -0.1908E-01  0.3999E+01
 -10.628 -0.2511E-01  0.3999E+01
 -10.618 -0.3257E-01  0.3999E+01
 -10.608 -0.4162E-01  0.3998E+01
 -10.598 -0.5237E-01  0.3998E+01
 -10.588 -0.6485E-01  0.3997E+01
 -10.578 -0.7895E-01  0.3996E+01
 -10.568 -0.9440E-01  0.3995E+01
 -10.558 -0.1107E+00  0.3994E+01
 -10.548 -0.1271E+00  0.3993E+01
 -10.538 -0.1424E+00  0.3992E+01
 -10.528 -0.1554E+00  0.3990E+01
 -10.518 -0.1640E+00  0.3988E+01
 -10.508 -0.1662E+00  0.3987E+01
 -10.498 -0.1595E+00  0.3985E+01
 -10.488 -0.1409E+00  0.3984E+01
 -10.478 -0.1077E+00  0.3983E+01
 -10.468 -0.5674E-01  0.3982E+01
 -10.458  0.1479E-01  0.3982E+01
 -10.448  0.1094E+00  0.3983E+01
 -10.438  0.2291E+00  0.3986E+01
 -10.428  0.3751E+00  0.3989E+01
 -10.418  0.5476E+00  0.3995E+01
 -10.408  0.7459E+00  0.4002E+01
 -10.398  0.9679E+00  0.4012E+01
 -10.388  0.1210E+01  0.4024E+01
 -10.378  0.1469E+01  0.4039E+01
 -10.368  0.1737E+01  0.4056E+01
 -10.358  0.2010E+01  0.4076E+01
 -10.348  0.2280E+01  0.4099E+01
 -10.338  0.2540E+01  0.4124E+01
 -10.328  0.2783E+01  0.4152E+01
 -10.318  0.3002E+01  0.4182E+01
 -10.308  0.3192E+01  0.4214E+01
 -10.298  0.3348E+01  0.4248E+01
 -10.288  0.3467E+01  0.4282E+01
 -10.278  0.3547E+01  0.4318E+01
 -10.268  0.3588E+01  0.4354E+01
 -10.258  0.3592E+01  0.4390E+01
 -10.248  0.3560E+01  0.4425E+01
 -10.238  0.3498E+01  0.4460E+01
 -10.228  0.3409E+01  0.4494E+01
 -10.218  0.3298E+01  0.4527E+01
 -10.208  0.3172E+01  0.4559E+01
 -10.198  0.3035E+01  0.4589E+01
 -10.188  0.2892E+01  0.4618E+01
 -10.178  0.2749E+01  0.4646E+01
 -10.168  0.2609E+01  0.4672E+01
 -10.158  0.2474E+01  0.4697E+01
 -10.148  0.2348E+01  0.4720E+01
 -10.138  0.2232E+01  0.4742E+01
 -10.128  0.2127E+01  0.4764E+01
 -10.118  0.2033E+01  0.4784E+01
 -10.108  0.1950E+01  0.4804E+01
 -10.098  0.1877E+01  0.4822E+01
 -10.088  0.1813E+01  0.4840E+01
 -10.078  0.1758E+01  0.4858E+01
 -10.068  0.1710E+01  0.4875E+01
 -10.058  0.1669E+01  0.4892E+01
 -10.048  0.1632E+01  0.4908E+01
 -10.038  0.1600E+01  0.4924E+01
 -10.028  0.1571E+01  0.4940E+01
 -10.018  0.1545E+01  0.4955E+01
 -10.008  0.1522E+01  0.4971E+01
  -9.998  0.1499E+01  0.4986E+01
  -9.988  0.1479E+01  0.5000E+01
  -9.978  0.1459E+01  0.5015E+01
  -9.968  0.1440E+01  0.5029E+01
  -9.958  0.1422E+01  0.5044E+01
  -9.948  0.1404E+01  0.5058E+01
  -9.938  0.1387E+01  0.5071E+01
  -9.928  0.1371E+01  0.5085E+01
  -9.918  0.1355E+01  0.5099E+01
  -9.908  0.1339E+01  0.5112E+01
  -9.898  0.1324E+01  0.5125E+01
  -9.888  0.1310E+01  0.5138E+01
  -9.878  0.1295E+01  0.5151E+01
  -9.868  0.1281E+01  0.5164E+01
  -9.858  0.1268E+01  0.5177E+01
  -9.848  0.1255E+01  0.5189E+01
  -9.838  0.1242E+01  0.5202E+01
  -9.828  0.1230E+01  0.5214E+01
  -9.818  0.1218E+01  0.5226E+01
  -9.808  0.1206E+01  0.5238E+01
  -9.798  0.1194E+01  0.5250E+01
  -9.788  0.1183E+01  0.5262E+01
  -9.778  0.1173E+01  0.5274E+01
  -9.768  0.1162E+01  0.5285E+01
  -9.758  0.1152E+01  0.5297E+01
  -9.748  0.1142E+01  0.5308E+01
  -9.738  0.1132E+01  0.5320E+01
  -9.728  0.1122E+01  0.5331E+01
  -9.718  0.1113E+01  0.5342E+01
  -9.708  0.1104E+01  0.5353E+01
  -9.698  0.1095E+01  0.5364E+01
  -9.688  0.1087E+01  0.5375E+01
  -9.678  0.1078E+01  0.5386E+01
  -9.668  0.1070E+01  0.5396E+01
  -9.658  0.1062E+01  0.5407E+01
  -9.648  0.1054E+01  0.5418E+01
  -9.638  0.1046E+01  0.5428E+01
  -9.628  0.1039E+01  0.5438E+01
  -9.618  0.1032E+01  0.5449E+01
  -9.608  0.1024E+01  0.5459E+01
  -9.598  0.1017E+01  0.5469E+01
  -9.588  0.1010E+01  0.5479E+01
  -9.578  0.1004E+01  0.5489E+01
  -9.568  0.9969E+00  0.5499E+01
  -9.558  0.9904E+00  0.5509E+01
  -9.548  0.9840E+00  0.5519E+01
  -9.538  0.9777E+00  0.5529E+01
  -9.528  0.9716E+00  0.5539E+01
  -9.518  0.9655E+00  0.5548E+01
  -9.508  0.9596E+00  0.5558E+01
  -9.498  0.9538E+00  0.5567E+01
  -9.488  0.9481E+00  0.5577E+01
  -9.478  0.9425E+00  0.5586E+01
  -9.468  0.9370E+00  0.5596E+01
  -9.458  0.9316E+00  0.5605E+01
  -9.448  0.9263E+00  0.5614E+01
  -9.438  0.9210E+00  0.5623E+01
  -9.428  0.9159E+00  0.5633E+01
  -9.418  0.9109E+00  0.5642E+01
  -9.408  0.9059E+00  0.5651E+01
  -9.398  0.9010E+00  0.5660E+01
  -9.388  0.8962E+00  0.5669E+01
  -9.378  0.8915E+00  0.5678E+01
  -9.368  0.8868E+00  0.5686E+01
  -9.358  0.8822E+00  0.5695E+01
  -9.348  0.8777E+00  0.5704E+01
  -9.338  0.8733E+00  0.5713E+01
  -9.328  0.8689E+00  0.5722E+01
  -9.318  0.8646E+00  0.5730E+01
  -9.308  0.8603E+00  0.5739E+01
  -9.298  0.8561E+00  0.5747E+01
  -9.288  0.8520E+00  0.5756E+01
  -9.278  0.8480E+00  0.5764E+01
  -9.268  0.8440E+00  0.5773E+01
  -9.258  0.8400E+00  0.5781E+01
  -9.248  0.8361E+00  0.5790E+01
  -9.238  0.8323E+00  0.5798E+01
  -9.228  0.8285E+00  0.5806E+01
  -9.218  0.8248E+00  0.5814E+01
  -9.208  0.8211E+00  0.5823E+01
  -9.198  0.8175E+00  0.5831E+01
  -9.188  0.8139E+00  0.5839E+01
  -9.178  0.8103E+00  0.5847E+01
  -9.168  0.8069E+00  0.5855E+01
  -9.158  0.8034E+00  0.5863E+01
  -9.148  0.8000E+00  0.5871E+01
  -9.138  0.7967E+00  0.5879E+01
  -9.128  0.7933E+00  0.5887E+01
  -9.118  0.7901E+00  0.5895E+01
  -9.108  0.7868E+00  0.5903E+01
  -9.098  0.7837E+00  0.5911E+01
  -9.088  0.7805E+00  0.5918E+01
  -9.078  0.7774E+00  0.5926E+01
  -9.068  0.7743E+00  0.5934E+01
  -9.058  0.7713E+00  0.5942E+01
  -9.048  0.7683E+00  0.5949E+01
  -9.038  0.7653E+00  0.5957E+01
  -9.028  0.7624E+00  0.5965E+01
  -9.018  0.7595E+00  0.5972E+01
  -9.008  0.7566E+00  0.5980E+01
  -8.998  0.7538E+00  0.5987E+01
  -8.988  0.7510E+00  0.5995E+01
  -8.978  0.7482E+00  0.6002E+01
  -8.968  0.7455E+00  0.6010E+01
  -8.958  0.7428E+00  0.6017E+01
  -8.948  0.7401E+00  0.6025E+01
  -8.938  0.7374E+00  0.6032E+01
  -8.928  0.7348E+00  0.6039E+01
  -8.918  0.7323E+00  0.6047E+01
  -8.908  0.7297E+00  0.6054E+01
  -8.898  0.7272E+00  0.6061E+01
  -8.888  0.7246E+00  0.6068E+01
  -8.878  0.7222E+00  0.6076E+01
  -8.868  0.7197E+00  0.6083E+01
  -8.858  0.7173E+00  0.6090E+01
  -8.848  0.7148E+00  0.6097E+01
  -8.838  0.7125E+00  0.6104E+01
  -8.828  0.7101E+00  0.6111E+01
  -8.818  0.7078E+00  0.6118E+01
  -8.808  0.7055E+00  0.6126E+01
  -8.798  0.7032E+00  0.6133E+01
  -8.788  0.7010E+00  0.6140E+01
  -8.778  0.6987E+00  0.6147E+01
  -8.768  0.6965E+00  0.6154E+01
  -8.758  0.6943E+00  0.6160E+01
  -8.748  0.6921E+00  0.6167E+01
  -8.738  0.6899E+00  0.6174E+01
  -8.728  0.6878E+00  0.6181E+01
  -8.718  0.6857E+00  0.6188E+01
  -8.708  0.6836E+00  0.6195E+01
  -8.698  0.6815E+00  0.6202E+01
  -8.688  0.6795E+00  0.6208E+01
  -8.678  0.6775E+00  0.6215E+01
  -8.668  0.6755E+00  0.6222E+01
  -8.658  0.6735E+00  0.6229E+01
  -8.648  0.6715E+00  0.6235E+01
  -8.638  0.6695E+00  0.6242E+01
  -8.628  0.6675E+00  0.6249E+01
  -8.618  0.6656E+00  0.6255E+01
  -8.608  0.6636E+00  0.6262E+01
  -8.598  0.6617E+00  0.6269E+01
  -8.588  0.6598E+00  0.6275E+01
  -8.578  0.6580E+00  0.6282E+01
  -8.568  0.6562E+00  0.6288E+01
  -8.558  0.6544E+00  0.6295E+01
  -8.548  0.6527E+00  0.6302E+01
  -8.538  0.6509E+00  0.6308E+01
  -8.528  0.6491E+00  0.6315E+01
  -8.518  0.6473E+00  0.6321E+01
  -8.508  0.6455E+00  0.6327E+01
  -8.498  0.6437E+00  0.6334E+01
  -8.488  0.6419E+00  0.6340E+01
  -8.478  0.6401E+00  0.6347E+01
  -8.468  0.6384E+00  0.6353E+01
  -8.458  0.6368E+00  0.6359E+01
  -8.448  0.6352E+00  0.6366E+01
  -8.438  0.6336E+00  0.6372E+01
  -8.428  0.6321E+00  0.6378E+01
  -8.418  0.6305E+00  0.6385E+01
  -8.408  0.6290E+00  0.6391E+01
  -8.398  0.6273E+00  0.6397E+01
  -8.388  0.6257E+00  0.6404E+01
  -8.378  0.6240E+00  0.6410E+01
  -8.368  0.6223E+00  0.6416E+01
  -8.358  0.6206E+00  0.6422E+01
  -8.348  0.6190E+00  0.6428E+01
  -8.338  0.6175E+00  0.6435E+01
  -8.328  0.6160E+00  0.6441E+01
  -8.318  0.6146E+00  0.6447E+01
  -8.308  0.6133E+00  0.6453E+01
  -8.298  0.6120E+00  0.6459E+01
  -8.288  0.6106E+00  0.6465E+01
  -8.278  0.6093E+00  0.6471E+01
  -8.268  0.6078E+00  0.6477E+01
  -8.258  0.6063E+00  0.6484E+01
  -8.248  0.6047E+00  0.6490E+01
  -8.238  0.6031E+00  0.6496E+01
  -8.228  0.6015E+00  0.6502E+01
  -8.218  0.5999E+00  0.6508E+01
  -8.208  0.5984E+00  0.6514E+01
  -8.198  0.5971E+00  0.6520E+01
  -8.188  0.5958E+00  0.6526E+01
  -8.178  0.5947E+00  0.6531E+01
  -8.168  0.5936E+00  0.6537E+01
  -8.158  0.5926E+00  0.6543E+01
  -8.148  0.5915E+00  0.6549E+01
  -8.138  0.5902E+00  0.6555E+01
  -8.128  0.5889E+00  0.6561E+01
  -8.118  0.5874E+00  0.6567E+01
  -8.108  0.5858E+00  0.6573E+01
  -8.098  0.5841E+00  0.6579E+01
  -8.088  0.5825E+00  0.6584E+01
  -8.078  0.5810E+00  0.6590E+01
  -8.068  0.5796E+00  0.6596E+01
  -8.058  0.5785E+00  0.6602E+01
  -8.048  0.5775E+00  0.6608E+01
  -8.038  0.5766E+00  0.6613E+01
  -8.028  0.5759E+00  0.6619E+01
  -8.018  0.5751E+00  0.6625E+01
  -8.008  0.5742E+00  0.6631E+01
  -7.998  0.5731E+00  0.6636E+01
  -7.988  0.5719E+00  0.6642E+01
  -7.978  0.5704E+00  0.6648E+01
  -7.968  0.5688E+00  0.6653E+01
  -7.958  0.5670E+00  0.6659E+01
  -7.948  0.5654E+00  0.6665E+01
  -7.938  0.5638E+00  0.6670E+01
  -7.928  0.5624E+00  0.6676E+01
  -7.918  0.5614E+00  0.6682E+01
  -7.908  0.5606E+00  0.6687E+01
  -7.898  0.5600E+00  0.6693E+01
  -7.888  0.5595E+00  0.6698E+01
  -7.878  0.5591E+00  0.6704E+01
  -7.868  0.5585E+00  0.6710E+01
  -7.858  0.5578E+00  0.6715E+01
  -7.848  0.5567E+00  0.6721E+01
  -7.838  0.5553E+00  0.6726E+01
  -7.828  0.5536E+00  0.6732E+01
  -7.818  0.5518E+00  0.6737E+01
  -7.808  0.5499E+00  0.6743E+01
  -7.798  0.5481E+00  0.6748E+01
  -7.788  0.5466E+00  0.6754E+01
  -7.778  0.5455E+00  0.6759E+01
  -7.768  0.5447E+00  0.6765E+01
  -7.758  0.5443E+00  0.6770E+01
  -7.748  0.5441E+00  0.6776E+01
  -7.738  0.5441E+00  0.6781E+01
  -7.728  0.5440E+00  0.6787E+01
  -7.718  0.5437E+00  0.6792E+01
  -7.708  0.5430E+00  0.6797E+01
  -7.698  0.5419E+00  0.6803E+01
  -7.688  0.5404E+00  0.6808E+01
  -7.678  0.5385E+00  0.6814E+01
  -7.668  0.5364E+00  0.6819E+01
  -7.658  0.5343E+00  0.6824E+01
  -7.648  0.5324E+00  0.6830E+01
  -7.638  0.5308E+00  0.6835E+01
  -7.628  0.5297E+00  0.6840E+01
  -7.618  0.5291E+00  0.6846E+01
  -7.608  0.5291E+00  0.6851E+01
  -7.598  0.5293E+00  0.6856E+01
  -7.588  0.5298E+00  0.6861E+01
  -7.578  0.5301E+00  0.6867E+01
  -7.568  0.5302E+00  0.6872E+01
  -7.558  0.5298E+00  0.6877E+01
  -7.548  0.5289E+00  0.6883E+01
  -7.538  0.5273E+00  0.6888E+01
  -7.528  0.5252E+00  0.6893E+01
  -7.518  0.5229E+00  0.6898E+01
  -7.508  0.5204E+00  0.6904E+01
  -7.498  0.5181E+00  0.6909E+01
  -7.488  0.5162E+00  0.6914E+01
  -7.478  0.5149E+00  0.6919E+01
  -7.468  0.5143E+00  0.6924E+01
  -7.458  0.5144E+00  0.6929E+01
  -7.448  0.5150E+00  0.6934E+01
  -7.438  0.5160E+00  0.6940E+01
  -7.428  0.5170E+00  0.6945E+01
  -7.418  0.5177E+00  0.6950E+01
  -7.408  0.5179E+00  0.6955E+01
  -7.398  0.5174E+00  0.6960E+01
  -7.388  0.5161E+00  0.6966E+01
  -7.378  0.5141E+00  0.6971E+01
  -7.368  0.5115E+00  0.6976E+01
  -7.358  0.5086E+00  0.6981E+01
  -7.348  0.5057E+00  0.6986E+01
  -7.338  0.5032E+00  0.6991E+01
  -7.328  0.5013E+00  0.6996E+01
  -7.318  0.5002E+00  0.7001E+01
  -7.308  0.5000E+00  0.7006E+01
  -7.298  0.5007E+00  0.7011E+01
  -7.288  0.5020E+00  0.7016E+01
  -7.278  0.5036E+00  0.7021E+01
  -7.268  0.5052E+00  0.7026E+01
  -7.258  0.5064E+00  0.7031E+01
  -7.248  0.5068E+00  0.7036E+01
  -7.238  0.5064E+00  0.7041E+01
  -7.228  0.5049E+00  0.7046E+01
  -7.218  0.5026E+00  0.7051E+01
  -7.208  0.4995E+00  0.7056E+01
  -7.198  0.4960E+00  0.7061E+01
  -7.188  0.4926E+00  0.7066E+01
  -7.178  0.4896E+00  0.7071E+01
  -7.168  0.4874E+00  0.7076E+01
  -7.158  0.4863E+00  0.7081E+01
  -7.148  0.4862E+00  0.7086E+01
  -7.138  0.4872E+00  0.7091E+01
  -7.128  0.4891E+00  0.7095E+01
  -7.118  0.4914E+00  0.7100E+01
  -7.108  0.4937E+00  0.7105E+01
  -7.098  0.4956E+00  0.7110E+01
  -7.088  0.4968E+00  0.7115E+01
  -7.078  0.4968E+00  0.7120E+01
  -7.068  0.4956E+00  0.7125E+01
  -7.058  0.4932E+00  0.7130E+01
  -7.048  0.4898E+00  0.7135E+01
  -7.038  0.4858E+00  0.7140E+01
  -7.028  0.4817E+00  0.7145E+01
  -7.018  0.4779E+00  0.7149E+01
  -7.008  0.4750E+00  0.7154E+01
  -6.998  0.4731E+00  0.7159E+01
  -6.988  0.4727E+00  0.7164E+01
  -6.978  0.4736E+00  0.7168E+01
  -6.968  0.4756E+00  0.7173E+01
  -6.958  0.4785E+00  0.7178E+01
  -6.948  0.4817E+00  0.7183E+01
  -6.938  0.4847E+00  0.7188E+01
  -6.928  0.4870E+00  0.7192E+01
  -6.918  0.4881E+00  0.7197E+01
  -6.908  0.4878E+00  0.7202E+01
  -6.898  0.4861E+00  0.7207E+01
  -6.888  0.4829E+00  0.7212E+01
  -6.878  0.4787E+00  0.7217E+01
  -6.868  0.4739E+00  0.7221E+01
  -6.858  0.4691E+00  0.7226E+01
  -6.848  0.4648E+00  0.7231E+01
  -6.838  0.4617E+00  0.7235E+01
  -6.828  0.4599E+00  0.7240E+01
  -6.818  0.4598E+00  0.7245E+01
  -6.808  0.4614E+00  0.7249E+01
  -6.798  0.4642E+00  0.7254E+01
  -6.788  0.4680E+00  0.7259E+01
  -6.778  0.4721E+00  0.7263E+01
  -6.768  0.4759E+00  0.7268E+01
  -6.758  0.4789E+00  0.7273E+01
  -6.748  0.4804E+00  0.7278E+01
  -6.738  0.4803E+00  0.7282E+01
  -6.728  0.4784E+00  0.7287E+01
  -6.718  0.4748E+00  0.7292E+01
  -6.708  0.4700E+00  0.7297E+01
  -6.698  0.4644E+00  0.7301E+01
  -6.688  0.4588E+00  0.7306E+01
  -6.678  0.4537E+00  0.7310E+01
  -6.668  0.4499E+00  0.7315E+01
  -6.658  0.4477E+00  0.7319E+01
  -6.648  0.4474E+00  0.7324E+01
  -6.638  0.4490E+00  0.7328E+01
  -6.628  0.4523E+00  0.7333E+01
  -6.618  0.4567E+00  0.7337E+01
  -6.608  0.4618E+00  0.7342E+01
  -6.598  0.4666E+00  0.7347E+01
  -6.588  0.4707E+00  0.7351E+01
  -6.578  0.4733E+00  0.7356E+01
  -6.568  0.4740E+00  0.7361E+01
  -6.558  0.4727E+00  0.7366E+01
  -6.548  0.4694E+00  0.7370E+01
  -6.538  0.4644E+00  0.7375E+01
  -6.528  0.4583E+00  0.7380E+01
  -6.518  0.4517E+00  0.7384E+01
  -6.508  0.4455E+00  0.7389E+01
  -6.498  0.4404E+00  0.7393E+01
  -6.488  0.4370E+00  0.7397E+01
  -6.478  0.4356E+00  0.7402E+01
  -6.468  0.4365E+00  0.7406E+01
  -6.458  0.4394E+00  0.7410E+01
  -6.448  0.4440E+00  0.7415E+01
  -6.438  0.4498E+00  0.7419E+01
  -6.428  0.4558E+00  0.7424E+01
  -6.418  0.4614E+00  0.7429E+01
  -6.408  0.4657E+00  0.7433E+01
  -6.398  0.4682E+00  0.7438E+01
  -6.388  0.4685E+00  0.7443E+01
  -6.378  0.4664E+00  0.7447E+01
  -6.368  0.4621E+00  0.7452E+01
  -6.358  0.4561E+00  0.7456E+01
  -6.348  0.4490E+00  0.7461E+01
  -6.338  0.4417E+00  0.7465E+01
  -6.328  0.4349E+00  0.7470E+01
  -6.318  0.4295E+00  0.7474E+01
  -6.308  0.4261E+00  0.7478E+01
  -6.298  0.4251E+00  0.7482E+01
  -6.288  0.4265E+00  0.7487E+01
  -6.278  0.4303E+00  0.7491E+01
  -6.268  0.4359E+00  0.7495E+01
  -6.258  0.4426E+00  0.7500E+01
  -6.248  0.4496E+00  0.7504E+01
  -6.238  0.4560E+00  0.7509E+01
  -6.228  0.4609E+00  0.7513E+01
  -6.218  0.4638E+00  0.7518E+01
  -6.208  0.4643E+00  0.7523E+01
  -6.198  0.4621E+00  0.7527E+01
  -6.188  0.4575E+00  0.7532E+01
  -6.178  0.4510E+00  0.7536E+01
  -6.168  0.4432E+00  0.7541E+01
  -6.158  0.4352E+00  0.7545E+01
  -6.148  0.4277E+00  0.7550E+01
  -6.138  0.4216E+00  0.7554E+01
  -6.128  0.4177E+00  0.7558E+01
  -6.118  0.4164E+00  0.7562E+01
  -6.108  0.4178E+00  0.7566E+01
  -6.098  0.4217E+00  0.7570E+01
  -6.088  0.4277E+00  0.7575E+01
  -6.078  0.4351E+00  0.7579E+01
  -6.068  0.4430E+00  0.7584E+01
  -6.058  0.4504E+00  0.7588E+01
  -6.048  0.4564E+00  0.7593E+01
  -6.038  0.4603E+00  0.7597E+01
  -6.028  0.4616E+00  0.7602E+01
  -6.018  0.4601E+00  0.7606E+01
  -6.008  0.4560E+00  0.7611E+01
  -5.998  0.4497E+00  0.7615E+01
  -5.988  0.4418E+00  0.7620E+01
  -5.978  0.4333E+00  0.7624E+01
  -5.968  0.4252E+00  0.7628E+01
  -5.958  0.4183E+00  0.7633E+01
  -5.948  0.4135E+00  0.7637E+01
  -5.938  0.4113E+00  0.7641E+01
  -5.928  0.4119E+00  0.7645E+01
  -5.918  0.4153E+00  0.7649E+01
  -5.908  0.4211E+00  0.7653E+01
  -5.898  0.4286E+00  0.7658E+01
  -5.888  0.4370E+00  0.7662E+01
  -5.878  0.4453E+00  0.7667E+01
  -5.868  0.4525E+00  0.7671E+01
  -5.858  0.4578E+00  0.7676E+01
  -5.848  0.4606E+00  0.7680E+01
  -5.838  0.4606E+00  0.7685E+01
  -5.828  0.4579E+00  0.7689E+01
  -5.818  0.4526E+00  0.7694E+01
  -5.808  0.4456E+00  0.7698E+01
  -5.798  0.4375E+00  0.7703E+01
  -5.788  0.4294E+00  0.7707E+01
  -5.778  0.4222E+00  0.7711E+01
  -5.768  0.4167E+00  0.7715E+01
  -5.758  0.4136E+00  0.7720E+01
  -5.748  0.4132E+00  0.7724E+01
  -5.738  0.4156E+00  0.7728E+01
  -5.728  0.4205E+00  0.7732E+01
  -5.718  0.4275E+00  0.7736E+01
  -5.708  0.4356E+00  0.7741E+01
  -5.698  0.4441E+00  0.7745E+01
  -5.688  0.4520E+00  0.7750E+01
  -5.678  0.4585E+00  0.7754E+01
  -5.668  0.4628E+00  0.7759E+01
  -5.658  0.4648E+00  0.7764E+01
  -5.648  0.4641E+00  0.7768E+01
  -5.638  0.4611E+00  0.7773E+01
  -5.628  0.4562E+00  0.7777E+01
  -5.618  0.4500E+00  0.7782E+01
  -5.608  0.4435E+00  0.7786E+01
  -5.598  0.4375E+00  0.7791E+01
  -5.588  0.4328E+00  0.7795E+01
  -5.578  0.4299E+00  0.7799E+01
  -5.568  0.4295E+00  0.7804E+01
  -5.558  0.4317E+00  0.7808E+01
  -5.548  0.4363E+00  0.7812E+01
  -5.538  0.4432E+00  0.7817E+01
  -5.528  0.4518E+00  0.7821E+01
  -5.518  0.4617E+00  0.7826E+01
  -5.508  0.4721E+00  0.7831E+01
  -5.498  0.4827E+00  0.7835E+01
  -5.488  0.4930E+00  0.7840E+01
  -5.478  0.5029E+00  0.7845E+01
  -5.468  0.5123E+00  0.7850E+01
  -5.458  0.5215E+00  0.7856E+01
  -5.448  0.5307E+00  0.7861E+01
  -5.438  0.5404E+00  0.7866E+01
  -5.428  0.5510E+00  0.7872E+01
  -5.418  0.5629E+00  0.7878E+01
  -5.408  0.5761E+00  0.7883E+01
  -5.398  0.5906E+00  0.7889E+01
  -5.388  0.6062E+00  0.7895E+01
  -5.378  0.6221E+00  0.7901E+01
  -5.368  0.6377E+00  0.7908E+01
  -5.358  0.6518E+00  0.7914E+01
  -5.348  0.6633E+00  0.7921E+01
  -5.338  0.6711E+00  0.7928E+01
  -5.328  0.6740E+00  0.7934E+01
  -5.318  0.6711E+00  0.7941E+01
  -5.308  0.6617E+00  0.7948E+01
  -5.298  0.6453E+00  0.7954E+01
  -5.288  0.6219E+00  0.7960E+01
  -5.278  0.5917E+00  0.7966E+01
  -5.268  0.5553E+00  0.7972E+01
  -5.258  0.5136E+00  0.7977E+01
  -5.248  0.4677E+00  0.7982E+01
  -5.238  0.4190E+00  0.7986E+01
  -5.228  0.3686E+00  0.7990E+01
  -5.218  0.3180E+00  0.7993E+01
  -5.208  0.2684E+00  0.7995E+01
  -5.198  0.2211E+00  0.7998E+01
  -5.188  0.1768E+00  0.7999E+01
  -5.178  0.1365E+00  0.8001E+01
  -5.168  0.1006E+00  0.8002E+01
  -5.158  0.6943E-01  0.8003E+01
  -5.148  0.4306E-01  0.8003E+01
  -5.138  0.2142E-01  0.8003E+01
  -5.128  0.4216E-02  0.8003E+01
  -5.118 -0.8917E-02  0.8003E+01
  -5.108 -0.1846E-01  0.8003E+01
  -5.098 -0.2493E-01  0.8003E+01
  -5.088 -0.2888E-01  0.8002E+01
  -5.078 -0.3085E-01  0.8002E+01
  -5.068 -0.3135E-01  0.8002E+01
  -5.058 -0.3084E-01  0.8001E+01
  -5.048 -0.2974E-01  0.8001E+01
  -5.038 -0.2838E-01  0.8001E+01
  -5.028 -0.2706E-01  0.8001E+01
  -5.018 -0.2598E-01  0.8000E+01
  -5.008 -0.2529E-01  0.8000E+01
  -4.998 -0.2507E-01  0.8000E+01
  -4.988 -0.2534E-01  0.8000E+01
  -4.978 -0.2605E-01  0.7999E+01
  -4.968 -0.2709E-01  0.7999E+01
  -4.958 -0.2830E-01  0.7999E+01
  -4.948 -0.2942E-01  0.7998E+01
  -4.938 -0.3016E-01  0.7998E+01
  -4.928 -0.3016E-01  0.7998E+01
  -4.918 -0.2899E-01  0.7998E+01
  -4.908 -0.2619E-01  0.7997E+01
  -4.898 -0.2124E-01  0.7997E+01
  -4.888 -0.1363E-01  0.7997E+01
  -4.878 -0.2820E-02  0.7997E+01
  -4.868  0.1166E-01  0.7997E+01
  -4.858  0.3025E-01  0.7997E+01
  -4.848  0.5328E-01  0.7998E+01
  -4.838  0.8093E-01  0.7999E+01
  -4.828  0.1133E+00  0.8000E+01
  -4.818  0.1501E+00  0.8001E+01
  -4.808  0.1911E+00  0.8003E+01
  -4.798  0.2356E+00  0.8006E+01
  -4.788  0.2829E+00  0.8008E+01
  -4.778  0.3319E+00  0.8012E+01
  -4.768  0.3815E+00  0.8016E+01
  -4.758  0.4303E+00  0.8020E+01
  -4.748  0.4770E+00  0.8025E+01
  -4.738  0.5203E+00  0.8030E+01
  -4.728  0.5589E+00  0.8035E+01
  -4.718  0.5917E+00  0.8041E+01
  -4.708  0.6179E+00  0.8048E+01
  -4.698  0.6369E+00  0.8054E+01
  -4.688  0.6486E+00  0.8060E+01
  -4.678  0.6532E+00  0.8067E+01
  -4.668  0.6511E+00  0.8073E+01
  -4.658  0.6432E+00  0.8080E+01
  -4.648  0.6307E+00  0.8086E+01
  -4.638  0.6149E+00  0.8092E+01
  -4.628  0.5971E+00  0.8098E+01
  -4.618  0.5786E+00  0.8104E+01
  -4.608  0.5607E+00  0.8110E+01
  -4.598  0.5444E+00  0.8115E+01
  -4.588  0.5302E+00  0.8120E+01
  -4.578  0.5185E+00  0.8126E+01
  -4.568  0.5092E+00  0.8131E+01
  -4.558  0.5021E+00  0.8136E+01
  -4.548  0.4965E+00  0.8141E+01
  -4.538  0.4916E+00  0.8146E+01
  -4.528  0.4866E+00  0.8150E+01
  -4.518  0.4807E+00  0.8155E+01
  -4.508  0.4733E+00  0.8160E+01
  -4.498  0.4640E+00  0.8165E+01
  -4.488  0.4527E+00  0.8169E+01
  -4.478  0.4396E+00  0.8174E+01
  -4.468  0.4253E+00  0.8178E+01
  -4.458  0.4106E+00  0.8182E+01
  -4.448  0.3965E+00  0.8186E+01
  -4.438  0.3840E+00  0.8190E+01
  -4.428  0.3741E+00  0.8193E+01
  -4.418  0.3676E+00  0.8197E+01
  -4.408  0.3651E+00  0.8201E+01
  -4.398  0.3668E+00  0.8204E+01
  -4.388  0.3725E+00  0.8208E+01
  -4.378  0.3816E+00  0.8212E+01
  -4.368  0.3933E+00  0.8216E+01
  -4.358  0.4062E+00  0.8220E+01
  -4.348  0.4192E+00  0.8224E+01
  -4.338  0.4308E+00  0.8229E+01
  -4.328  0.4397E+00  0.8233E+01
  -4.318  0.4449E+00  0.8237E+01
  -4.308  0.4457E+00  0.8242E+01
  -4.298  0.4417E+00  0.8246E+01
  -4.288  0.4330E+00  0.8251E+01
  -4.278  0.4204E+00  0.8255E+01
  -4.268  0.4046E+00  0.8259E+01
  -4.258  0.3870E+00  0.8263E+01
  -4.248  0.3691E+00  0.8266E+01
  -4.238  0.3524E+00  0.8270E+01
  -4.228  0.3383E+00  0.8273E+01
  -4.218  0.3282E+00  0.8277E+01
  -4.208  0.3229E+00  0.8280E+01
  -4.198  0.3230E+00  0.8283E+01
  -4.188  0.3284E+00  0.8286E+01
  -4.178  0.3386E+00  0.8290E+01
  -4.168  0.3529E+00  0.8293E+01
  -4.158  0.3699E+00  0.8297E+01
  -4.148  0.3881E+00  0.8301E+01
  -4.138  0.4059E+00  0.8305E+01
  -4.128  0.4216E+00  0.8309E+01
  -4.118  0.4337E+00  0.8313E+01
  -4.108  0.4411E+00  0.8318E+01
  -4.098  0.4431E+00  0.8322E+01
  -4.088  0.4392E+00  0.8327E+01
  -4.078  0.4298E+00  0.8331E+01
  -4.068  0.4154E+00  0.8335E+01
  -4.058  0.3973E+00  0.8339E+01
  -4.048  0.3767E+00  0.8343E+01
  -4.038  0.3555E+00  0.8346E+01
  -4.028  0.3353E+00  0.8350E+01
  -4.018  0.3179E+00  0.8353E+01
  -4.008  0.3046E+00  0.8356E+01
  -3.998  0.2966E+00  0.8359E+01
  -3.988  0.2946E+00  0.8362E+01
  -3.978  0.2987E+00  0.8365E+01
  -3.968  0.3087E+00  0.8368E+01
  -3.958  0.3237E+00  0.8371E+01
  -3.948  0.3425E+00  0.8375E+01
  -3.938  0.3635E+00  0.8378E+01
  -3.928  0.3851E+00  0.8382E+01
  -3.918  0.4053E+00  0.8386E+01
  -3.908  0.4224E+00  0.8390E+01
  -3.898  0.4351E+00  0.8395E+01
  -3.888  0.4422E+00  0.8399E+01
  -3.878  0.4429E+00  0.8404E+01
  -3.868  0.4373E+00  0.8408E+01
  -3.858  0.4256E+00  0.8412E+01
  -3.848  0.4086E+00  0.8416E+01
  -3.838  0.3878E+00  0.8420E+01
  -3.828  0.3647E+00  0.8424E+01
  -3.818  0.3411E+00  0.8427E+01
  -3.808  0.3188E+00  0.8430E+01
  -3.798  0.2997E+00  0.8433E+01
  -3.788  0.2851E+00  0.8436E+01
  -3.778  0.2764E+00  0.8439E+01
  -3.768  0.2742E+00  0.8442E+01
  -3.758  0.2786E+00  0.8445E+01
  -3.748  0.2894E+00  0.8447E+01
  -3.738  0.3058E+00  0.8451E+01
  -3.728  0.3263E+00  0.8454E+01
  -3.718  0.3495E+00  0.8457E+01
  -3.708  0.3735E+00  0.8461E+01
  -3.698  0.3964E+00  0.8465E+01
  -3.688  0.4163E+00  0.8469E+01
  -3.678  0.4317E+00  0.8473E+01
  -3.668  0.4414E+00  0.8478E+01
  -3.658  0.4444E+00  0.8482E+01
  -3.648  0.4406E+00  0.8487E+01
  -3.638  0.4301E+00  0.8491E+01
  -3.628  0.4136E+00  0.8495E+01
  -3.618  0.3925E+00  0.8499E+01
  -3.608  0.3682E+00  0.8503E+01
  -3.598  0.3426E+00  0.8506E+01
  -3.588  0.3176E+00  0.8509E+01
  -3.578  0.2951E+00  0.8512E+01
  -3.568  0.2768E+00  0.8515E+01
  -3.558  0.2641E+00  0.8518E+01
  -3.548  0.2579E+00  0.8520E+01
  -3.538  0.2589E+00  0.8523E+01
  -3.528  0.2668E+00  0.8526E+01
  -3.518  0.2811E+00  0.8528E+01
  -3.508  0.3007E+00  0.8531E+01
  -3.498  0.3242E+00  0.8535E+01
  -3.488  0.3498E+00  0.8538E+01
  -3.478  0.3756E+00  0.8542E+01
  -3.468  0.3996E+00  0.8546E+01
  -3.458  0.4199E+00  0.8550E+01
  -3.448  0.4351E+00  0.8554E+01
  -3.438  0.4438E+00  0.8559E+01
  -3.428  0.4456E+00  0.8563E+01
  -3.418  0.4400E+00  0.8568E+01
  -3.408  0.4276E+00  0.8572E+01
  -3.398  0.4092E+00  0.8576E+01
  -3.388  0.3860E+00  0.8580E+01
  -3.378  0.3598E+00  0.8584E+01
  -3.368  0.3325E+00  0.8587E+01
  -3.358  0.3060E+00  0.8590E+01
  -3.348  0.2823E+00  0.8593E+01
  -3.338  0.2631E+00  0.8595E+01
  -3.328  0.2499E+00  0.8598E+01
  -3.318  0.2435E+00  0.8600E+01
  -3.308  0.2445E+00  0.8603E+01
  -3.298  0.2529E+00  0.8605E+01
  -3.288  0.2679E+00  0.8608E+01
  -3.278  0.2886E+00  0.8611E+01
  -3.268  0.3134E+00  0.8614E+01
  -3.258  0.3405E+00  0.8617E+01
  -3.248  0.3680E+00  0.8621E+01
  -3.238  0.3938E+00  0.8625E+01
  -3.228  0.4161E+00  0.8629E+01
  -3.218  0.4333E+00  0.8633E+01
  -3.208  0.4439E+00  0.8638E+01
  -3.198  0.4473E+00  0.8642E+01
  -3.188  0.4432E+00  0.8647E+01
  -3.178  0.4317E+00  0.8651E+01
  -3.168  0.4137E+00  0.8655E+01
  -3.158  0.3905E+00  0.8659E+01
  -3.148  0.3636E+00  0.8663E+01
  -3.138  0.3349E+00  0.8666E+01
  -3.128  0.3064E+00  0.8669E+01
  -3.118  0.2803E+00  0.8672E+01
  -3.108  0.2582E+00  0.8675E+01
  -3.098  0.2418E+00  0.8677E+01
  -3.088  0.2323E+00  0.8679E+01
  -3.078  0.2302E+00  0.8682E+01
  -3.068  0.2359E+00  0.8684E+01
  -3.058  0.2488E+00  0.8687E+01
  -3.048  0.2681E+00  0.8689E+01
  -3.038  0.2924E+00  0.8692E+01
  -3.028  0.3200E+00  0.8695E+01
  -3.018  0.3491E+00  0.8699E+01
  -3.008  0.3775E+00  0.8703E+01
  -2.998  0.4032E+00  0.8707E+01
  -2.988  0.4244E+00  0.8711E+01
  -2.978  0.4396E+00  0.8715E+01
  -2.968  0.4478E+00  0.8720E+01
  -2.958  0.4482E+00  0.8724E+01
  -2.948  0.4408E+00  0.8729E+01
  -2.938  0.4262E+00  0.8733E+01
  -2.928  0.4052E+00  0.8737E+01
  -2.918  0.3793E+00  0.8741E+01
  -2.908  0.3503E+00  0.8744E+01
  -2.898  0.3201E+00  0.8747E+01
  -2.888  0.2909E+00  0.8750E+01
  -2.878  0.2645E+00  0.8753E+01
  -2.868  0.2429E+00  0.8755E+01
  -2.858  0.2274E+00  0.8758E+01
  -2.848  0.2193E+00  0.8760E+01
  -2.838  0.2189E+00  0.8762E+01
  -2.828  0.2264E+00  0.8764E+01
  -2.818  0.2413E+00  0.8767E+01
  -2.808  0.2625E+00  0.8769E+01
  -2.798  0.2886E+00  0.8772E+01
  -2.788  0.3179E+00  0.8775E+01
  -2.778  0.3483E+00  0.8779E+01
  -2.768  0.3777E+00  0.8783E+01
  -2.758  0.4043E+00  0.8787E+01
  -2.748  0.4260E+00  0.8791E+01
  -2.738  0.4414E+00  0.8795E+01
  -2.728  0.4495E+00  0.8800E+01
  -2.718  0.4497E+00  0.8804E+01
  -2.708  0.4418E+00  0.8809E+01
  -2.698  0.4265E+00  0.8813E+01
  -2.688  0.4047E+00  0.8817E+01
  -2.678  0.3778E+00  0.8821E+01
  -2.668  0.3477E+00  0.8824E+01
  -2.658  0.3163E+00  0.8828E+01
  -2.648  0.2858E+00  0.8830E+01
  -2.638  0.2580E+00  0.8833E+01
  -2.628  0.2350E+00  0.8835E+01
  -2.618  0.2182E+00  0.8838E+01
  -2.608  0.2088E+00  0.8840E+01
  -2.598  0.2074E+00  0.8842E+01
  -2.588  0.2140E+00  0.8844E+01
  -2.578  0.2283E+00  0.8846E+01
  -2.568  0.2493E+00  0.8849E+01
  -2.558  0.2756E+00  0.8851E+01
  -2.548  0.3056E+00  0.8854E+01
  -2.538  0.3371E+00  0.8858E+01
  -2.528  0.3682E+00  0.8861E+01
  -2.518  0.3967E+00  0.8865E+01
  -2.508  0.4207E+00  0.8870E+01
  -2.498  0.4387E+00  0.8874E+01
  -2.488  0.4495E+00  0.8879E+01
  -2.478  0.4522E+00  0.8883E+01
  -2.468  0.4466E+00  0.8888E+01
  -2.458  0.4332E+00  0.8892E+01
  -2.448  0.4128E+00  0.8896E+01
  -2.438  0.3866E+00  0.8900E+01
  -2.428  0.3564E+00  0.8903E+01
  -2.418  0.3241E+00  0.8907E+01
  -2.408  0.2919E+00  0.8910E+01
  -2.398  0.2617E+00  0.8912E+01
  -2.388  0.2356E+00  0.8915E+01
  -2.378  0.2153E+00  0.8917E+01
  -2.368  0.2020E+00  0.8919E+01
  -2.358  0.1966E+00  0.8921E+01
  -2.348  0.1995E+00  0.8923E+01
  -2.338  0.2105E+00  0.8925E+01
  -2.328  0.2289E+00  0.8927E+01
  -2.318  0.2536E+00  0.8930E+01
  -2.308  0.2828E+00  0.8932E+01
  -2.298  0.3149E+00  0.8936E+01
  -2.288  0.3476E+00  0.8939E+01
  -2.278  0.3788E+00  0.8943E+01
  -2.268  0.4066E+00  0.8947E+01
  -2.258  0.4292E+00  0.8951E+01
  -2.248  0.4450E+00  0.8956E+01
  -2.238  0.4530E+00  0.8960E+01
  -2.228  0.4527E+00  0.8965E+01
  -2.218  0.4441E+00  0.8969E+01
  -2.208  0.4277E+00  0.8973E+01
  -2.198  0.4045E+00  0.8977E+01
  -2.188  0.3760E+00  0.8981E+01
  -2.178  0.3439E+00  0.8985E+01
  -2.168  0.3104E+00  0.8988E+01
  -2.158  0.2775E+00  0.8991E+01
  -2.148  0.2473E+00  0.8993E+01
  -2.138  0.2217E+00  0.8995E+01
  -2.128  0.2024E+00  0.8997E+01
  -2.118  0.1905E+00  0.8999E+01
  -2.108  0.1868E+00  0.9001E+01
  -2.098  0.1915E+00  0.9003E+01
  -2.088  0.2044E+00  0.9005E+01
  -2.078  0.2246E+00  0.9007E+01
  -2.068  0.2509E+00  0.9010E+01
  -2.058  0.2816E+00  0.9013E+01
  -2.048  0.3149E+00  0.9016E+01
  -2.038  0.3485E+00  0.9019E+01
  -2.028  0.3805E+00  0.9023E+01
  -2.018  0.4087E+00  0.9027E+01
  -2.008  0.4314E+00  0.9031E+01
  -1.998  0.4471E+00  0.9036E+01
  -1.988  0.4548E+00  0.9040E+01
  -1.978  0.4541E+00  0.9045E+01
  -1.968  0.4449E+00  0.9049E+01
  -1.958  0.4278E+00  0.9054E+01
  -1.948  0.4038E+00  0.9058E+01
  -1.938  0.3745E+00  0.9061E+01
  -1.928  0.3415E+00  0.9065E+01
  -1.918  0.3071E+00  0.9068E+01
  -1.908  0.2732E+00  0.9071E+01
  -1.898  0.2420E+00  0.9073E+01
  -1.888  0.2154E+00  0.9075E+01
  -1.878  0.1951E+00  0.9077E+01
  -1.868  0.1822E+00  0.9079E+01
  -1.858  0.1776E+00  0.9081E+01
  -1.848  0.1816E+00  0.9083E+01
  -1.838  0.1939E+00  0.9085E+01
  -1.828  0.2138E+00  0.9087E+01
  -1.818  0.2401E+00  0.9089E+01
  -1.808  0.2711E+00  0.9092E+01
  -1.798  0.3050E+00  0.9095E+01
  -1.788  0.3396E+00  0.9098E+01
  -1.778  0.3730E+00  0.9102E+01
  -1.768  0.4029E+00  0.9106E+01
  -1.758  0.4275E+00  0.9110E+01
  -1.748  0.4453E+00  0.9115E+01
  -1.738  0.4553E+00  0.9119E+01
  -1.728  0.4566E+00  0.9124E+01
  -1.718  0.4494E+00  0.9128E+01
  -1.708  0.4339E+00  0.9133E+01
  -1.698  0.4111E+00  0.9137E+01
  -1.688  0.3825E+00  0.9141E+01
  -1.678  0.3496E+00  0.9144E+01
  -1.668  0.3145E+00  0.9147E+01
  -1.658  0.2794E+00  0.9150E+01
  -1.648  0.2463E+00  0.9153E+01
  -1.638  0.2172E+00  0.9155E+01
  -1.628  0.1939E+00  0.9157E+01
  -1.618  0.1778E+00  0.9158E+01
  -1.608  0.1698E+00  0.9160E+01
  -1.598  0.1705E+00  0.9162E+01
  -1.588  0.1798E+00  0.9164E+01
  -1.578  0.1971E+00  0.9166E+01
  -1.568  0.2215E+00  0.9168E+01
  -1.558  0.2514E+00  0.9170E+01
  -1.548  0.2850E+00  0.9173E+01
  -1.538  0.3205E+00  0.9176E+01
  -1.528  0.3555E+00  0.9180E+01
  -1.518  0.3881E+00  0.9184E+01
  -1.508  0.4161E+00  0.9188E+01
  -1.498  0.4381E+00  0.9192E+01
  -1.488  0.4525E+00  0.9197E+01
  -1.478  0.4585E+00  0.9201E+01
  -1.468  0.4558E+00  0.9206E+01
  -1.458  0.4444E+00  0.9210E+01
  -1.448  0.4251E+00  0.9215E+01
  -1.438  0.3990E+00  0.9219E+01
  -1.428  0.3676E+00  0.9222E+01
  -1.418  0.3328E+00  0.9226E+01
  -1.408  0.2966E+00  0.9229E+01
  -1.398  0.2612E+00  0.9231E+01
  -1.388  0.2288E+00  0.9234E+01
  -1.378  0.2011E+00  0.9236E+01
  -1.368  0.1798E+00  0.9237E+01
  -1.358  0.1662E+00  0.9239E+01
  -1.348  0.1611E+00  0.9241E+01
  -1.338  0.1648E+00  0.9242E+01
  -1.328  0.1770E+00  0.9244E+01
  -1.318  0.1971E+00  0.9246E+01
  -1.308  0.2238E+00  0.9248E+01
  -1.298  0.2557E+00  0.9251E+01
  -1.288  0.2908E+00  0.9254E+01
  -1.278  0.3272E+00  0.9257E+01
  -1.268  0.3625E+00  0.9261E+01
  -1.258  0.3948E+00  0.9265E+01
  -1.248  0.4221E+00  0.9269E+01
  -1.238  0.4429E+00  0.9273E+01
  -1.228  0.4558E+00  0.9278E+01
  -1.218  0.4601E+00  0.9282E+01
  -1.208  0.4556E+00  0.9287E+01
  -1.198  0.4424E+00  0.9291E+01
  -1.188  0.4213E+00  0.9296E+01
  -1.178  0.3936E+00  0.9300E+01
  -1.168  0.3609E+00  0.9303E+01
  -1.158  0.3250E+00  0.9306E+01
  -1.148  0.2881E+00  0.9309E+01
  -1.138  0.2524E+00  0.9312E+01
  -1.128  0.2197E+00  0.9314E+01
  -1.118  0.1922E+00  0.9316E+01
  -1.108  0.1713E+00  0.9318E+01
  -1.098  0.1582E+00  0.9319E+01
  -1.088  0.1537E+00  0.9321E+01
  -1.078  0.1581E+00  0.9322E+01
  -1.068  0.1711E+00  0.9324E+01
  -1.058  0.1919E+00  0.9326E+01
  -1.048  0.2195E+00  0.9328E+01
  -1.038  0.2521E+00  0.9331E+01
  -1.028  0.2879E+00  0.9334E+01
  -1.018  0.3250E+00  0.9337E+01
  -1.008  0.3610E+00  0.9340E+01
  -0.998  0.3939E+00  0.9344E+01
  -0.988  0.4219E+00  0.9349E+01
  -0.978  0.4432E+00  0.9353E+01
  -0.968  0.4566E+00  0.9358E+01
  -0.958  0.4614E+00  0.9362E+01
  -0.948  0.4571E+00  0.9367E+01
  -0.938  0.4441E+00  0.9371E+01
  -0.928  0.4231E+00  0.9375E+01
  -0.918  0.3952E+00  0.9379E+01
  -0.908  0.3620E+00  0.9383E+01
  -0.898  0.3253E+00  0.9386E+01
  -0.888  0.2873E+00  0.9389E+01
  -0.878  0.2499E+00  0.9392E+01
  -0.868  0.2153E+00  0.9394E+01
  -0.858  0.1851E+00  0.9396E+01
  -0.848  0.1611E+00  0.9397E+01
  -0.838  0.1443E+00  0.9399E+01
  -0.828  0.1355E+00  0.9400E+01
  -0.818  0.1349E+00  0.9401E+01
  -0.808  0.1423E+00  0.9403E+01
  -0.798  0.1570E+00  0.9404E+01
  -0.788  0.1778E+00  0.9406E+01
  -0.778  0.2033E+00  0.9408E+01
  -0.768  0.2317E+00  0.9411E+01
  -0.758  0.2612E+00  0.9413E+01
  -0.748  0.2901E+00  0.9416E+01
  -0.738  0.3167E+00  0.9419E+01
  -0.728  0.3398E+00  0.9423E+01
  -0.718  0.3584E+00  0.9426E+01
  -0.708  0.3723E+00  0.9430E+01
  -0.698  0.3816E+00  0.9434E+01
  -0.688  0.3875E+00  0.9438E+01
  -0.678  0.3913E+00  0.9442E+01
  -0.668  0.3952E+00  0.9445E+01
  -0.658  0.4017E+00  0.9449E+01
  -0.648  0.4136E+00  0.9454E+01
  -0.638  0.4337E+00  0.9458E+01
  -0.628  0.4647E+00  0.9463E+01
  -0.618  0.5092E+00  0.9468E+01
  -0.608  0.5689E+00  0.9473E+01
  -0.598  0.6449E+00  0.9480E+01
  -0.588  0.7375E+00  0.9487E+01
  -0.578  0.8461E+00  0.9496E+01
  -0.568  0.9691E+00  0.9505E+01
  -0.558  0.1104E+01  0.9516E+01
  -0.548  0.1247E+01  0.9529E+01
  -0.538  0.1395E+01  0.9543E+01
  -0.528  0.1542E+01  0.9558E+01
  -0.518  0.1685E+01  0.9575E+01
  -0.508  0.1819E+01  0.9593E+01
  -0.498  0.1939E+01  0.9613E+01
  -0.488  0.2041E+01  0.9633E+01
  -0.478  0.2122E+01  0.9654E+01
  -0.468  0.2181E+01  0.9676E+01
  -0.458  0.2215E+01  0.9698E+01
  -0.448  0.2224E+01  0.9720E+01
  -0.438  0.2208E+01  0.9743E+01
  -0.428  0.2170E+01  0.9764E+01
  -0.418  0.2112E+01  0.9785E+01
  -0.408  0.2036E+01  0.9806E+01
  -0.398  0.1946E+01  0.9825E+01
  -0.388  0.1847E+01  0.9844E+01
  -0.378  0.1741E+01  0.9861E+01
  -0.368  0.1633E+01  0.9877E+01
  -0.358  0.1527E+01  0.9893E+01
  -0.348  0.1425E+01  0.9907E+01
  -0.338  0.1332E+01  0.9920E+01
  -0.328  0.1249E+01  0.9933E+01
  -0.318  0.1178E+01  0.9945E+01
  -0.308  0.1120E+01  0.9956E+01
  -0.298  0.1076E+01  0.9966E+01
  -0.288  0.1046E+01  0.9977E+01
  -0.278  0.1029E+01  0.9987E+01
  -0.268  0.1023E+01  0.9997E+01
  -0.258  0.1028E+01  0.1001E+02
  -0.248  0.1040E+01  0.1002E+02
  -0.238  0.1058E+01  0.1003E+02
  -0.228  0.1079E+01  0.1004E+02
  -0.218  0.1100E+01  0.1005E+02
  -0.208  0.1120E+01  0.1006E+02
  -0.198  0.1134E+01  0.1007E+02
  -0.188  0.1142E+01  0.1008E+02
  -0.178  0.1142E+01  0.1010E+02
  -0.168  0.1133E+01  0.1011E+02
  -0.158  0.1114E+01  0.1012E+02
  -0.148  0.1085E+01  0.1013E+02
  -0.138  0.1047E+01  0.1014E+02
  -0.128  0.1001E+01  0.1015E+02
  -0.118  0.9503E+00  0.1016E+02
  -0.108  0.8960E+00  0.1017E+02
  -0.098  0.8417E+00  0.1018E+02
  -0.088  0.7905E+00  0.1018E+02
  -0.078  0.7461E+00  0.1019E+02
  -0.068  0.7122E+00  0.1020E+02
  -0.058  0.6924E+00  0.1021E+02
  -0.048  0.6900E+00  0.1021E+02
  -0.038  0.7082E+00  0.1022E+02
  -0.028  0.7498E+00  0.1023E+02
  -0.018  0.8167E+00  0.1024E+02
  -0.008  0.9106E+00  0.1024E+02
   0.002  0.1032E+01  0.1026E+02
   0.012  0.1182E+01  0.1027E+02
   0.022  0.1358E+01  0.1028E+02
   0.032  0.1561E+01  0.1030E+02
   0.042  0.1787E+01  0.1031E+02
   0.052  0.2034E+01  0.1033E+02
   0.062  0.2298E+01  0.1036E+02
   0.072  0.2576E+01  0.1038E+02
   0.082  0.2863E+01  0.1041E+02
   0.092  0.3155E+01  0.1044E+02
   0.102  0.3447E+01  0.1048E+02
   0.112  0.3734E+01  0.1052E+02
   0.122  0.4011E+01  0.1056E+02
   0.132  0.4274E+01  0.1060E+02
   0.142  0.4517E+01  0.1064E+02
   0.152  0.4737E+01  0.1069E+02
   0.162  0.4930E+01  0.1074E+02
   0.172  0.5094E+01  0.1079E+02
   0.182  0.5227E+01  0.1084E+02
   0.192  0.5326E+01  0.1090E+02
   0.202  0.5392E+01  0.1095E+02
   0.212  0.5425E+01  0.1100E+02
   0.222  0.5427E+01  0.1106E+02
   0.232  0.5401E+01  0.1111E+02
   0.242  0.5348E+01  0.1117E+02
   0.252  0.5272E+01  0.1122E+02
   0.262  0.5178E+01  0.1127E+02
   0.272  0.5068E+01  0.1132E+02
   0.282  0.4948E+01  0.1137E+02
   0.292  0.4821E+01  0.1142E+02
   0.302  0.4689E+01  0.1147E+02
   0.312  0.4557E+01  0.1151E+02
   0.322  0.4425E+01  0.1156E+02
   0.332  0.4295E+01  0.1160E+02
   0.342  0.4168E+01  0.1164E+02
   0.352  0.4045E+01  0.1168E+02
   0.362  0.3925E+01  0.1172E+02
   0.372  0.3809E+01  0.1176E+02
   0.382  0.3695E+01  0.1180E+02
   0.392  0.3585E+01  0.1183E+02
   0.402  0.3477E+01  0.1187E+02
   0.412  0.3372E+01  0.1190E+02
   0.422  0.3270E+01  0.1193E+02
   0.432  0.3172E+01  0.1196E+02
   0.442  0.3078E+01  0.1199E+02
   0.452  0.2990E+01  0.1202E+02
   0.462  0.2908E+01  0.1205E+02
   0.472  0.2834E+01  0.1208E+02
   0.482  0.2769E+01  0.1211E+02
   0.492  0.2714E+01  0.1214E+02
   0.502  0.2669E+01  0.1216E+02
   0.512  0.2634E+01  0.1219E+02
   0.522  0.2610E+01  0.1222E+02
   0.532  0.2596E+01  0.1224E+02
   0.542  0.2592E+01  0.1227E+02
   0.552  0.2595E+01  0.1229E+02
   0.562  0.2604E+01  0.1232E+02
   0.572  0.2617E+01  0.1235E+02
   0.582  0.2633E+01  0.1237E+02
   0.592  0.2650E+01  0.1240E+02
   0.602  0.2664E+01  0.1243E+02
   0.612  0.2674E+01  0.1245E+02
   0.622  0.2679E+01  0.1248E+02
   0.632  0.2677E+01  0.1251E+02
   0.642  0.2666E+01  0.1253E+02
   0.652  0.2647E+01  0.1256E+02
   0.662  0.2620E+01  0.1259E+02
   0.672  0.2584E+01  0.1261E+02
   0.682  0.2540E+01  0.1264E+02
   0.692  0.2491E+01  0.1266E+02
   0.702  0.2438E+01  0.1269E+02
   0.712  0.2382E+01  0.1271E+02
   0.722  0.2325E+01  0.1273E+02
   0.732  0.2271E+01  0.1276E+02
   0.742  0.2220E+01  0.1278E+02
   0.752  0.2176E+01  0.1280E+02
   0.762  0.2138E+01  0.1282E+02
   0.772  0.2108E+01  0.1284E+02
   0.782  0.2088E+01  0.1286E+02
   0.792  0.2077E+01  0.1288E+02
   0.802  0.2076E+01  0.1290E+02
   0.812  0.2083E+01  0.1293E+02
   0.822  0.2097E+01  0.1295E+02
   0.832  0.2118E+01  0.1297E+02
   0.842  0.2143E+01  0.1299E+02
   0.852  0.2170E+01  0.1301E+02
   0.862  0.2198E+01  0.1303E+02
   0.872  0.2224E+01  0.1305E+02
   0.882  0.2246E+01  0.1308E+02
   0.892  0.2262E+01  0.1310E+02
   0.902  0.2271E+01  0.1312E+02
   0.912  0.2272E+01  0.1315E+02
   0.922  0.2264E+01  0.1317E+02
   0.932  0.2247E+01  0.1319E+02
   0.942  0.2221E+01  0.1321E+02
   0.952  0.2187E+01  0.1323E+02
   0.962  0.2147E+01  0.1326E+02
   0.972  0.2102E+01  0.1328E+02
   0.982  0.2054E+01  0.1330E+02
   0.992  0.2004E+01  0.1332E+02
   1.002  0.1956E+01  0.1334E+02
   1.012  0.1911E+01  0.1336E+02
   1.022  0.1871E+01  0.1337E+02
   1.032  0.1838E+01  0.1339E+02
   1.042  0.1812E+01  0.1341E+02
   1.052  0.1796E+01  0.1343E+02
   1.062  0.1788E+01  0.1345E+02
   1.072  0.1790E+01  0.1346E+02
   1.082  0.1801E+01  0.1348E+02
   1.092  0.1819E+01  0.1350E+02
   1.102  0.1843E+01  0.1352E+02
   1.112  0.1872E+01  0.1354E+02
   1.122  0.1904E+01  0.1356E+02
   1.132  0.1936E+01  0.1358E+02
   1.142  0.1967E+01  0.1360E+02
   1.152  0.1995E+01  0.1362E+02
   1.162  0.2017E+01  0.1364E+02
   1.172  0.2033E+01  0.1366E+02
   1.182  0.2041E+01  0.1368E+02
   1.192  0.2041E+01  0.1370E+02
   1.202  0.2031E+01  0.1372E+02
   1.212  0.2014E+01  0.1374E+02
   1.222  0.1989E+01  0.1376E+02
   1.232  0.1958E+01  0.1378E+02
   1.242  0.1922E+01  0.1380E+02
   1.252  0.1883E+01  0.1382E+02
   1.262  0.1844E+01  0.1383E+02
   1.272  0.1804E+01  0.1385E+02
   1.282  0.1768E+01  0.1387E+02
   1.292  0.1735E+01  0.1389E+02
   1.302  0.1708E+01  0.1390E+02
   1.312  0.1686E+01  0.1392E+02
   1.322  0.1670E+01  0.1394E+02
   1.332  0.1660E+01  0.1395E+02
   1.342  0.1654E+01  0.1397E+02
   1.352  0.1653E+01  0.1399E+02
   1.362  0.1653E+01  0.1400E+02
   1.372  0.1655E+01  0.1402E+02
   1.382  0.1654E+01  0.1404E+02
   1.392  0.1651E+01  0.1405E+02
   1.402  0.1642E+01  0.1407E+02
   1.412  0.1627E+01  0.1409E+02
   1.422  0.1604E+01  0.1410E+02
   1.432  0.1573E+01  0.1412E+02
   1.442  0.1533E+01  0.1413E+02
   1.452  0.1485E+01  0.1415E+02
   1.462  0.1429E+01  0.1416E+02
   1.472  0.1366E+01  0.1418E+02
   1.482  0.1298E+01  0.1419E+02
   1.492  0.1227E+01  0.1420E+02
   1.502  0.1154E+01  0.1421E+02
   1.512  0.1081E+01  0.1422E+02
   1.522  0.1010E+01  0.1423E+02
   1.532  0.9421E+00  0.1424E+02
   1.542  0.8789E+00  0.1425E+02
   1.552  0.8214E+00  0.1426E+02
   1.562  0.7704E+00  0.1427E+02
   1.572  0.7262E+00  0.1428E+02
   1.582  0.6890E+00  0.1428E+02
   1.592  0.6585E+00  0.1429E+02
   1.602  0.6345E+00  0.1430E+02
   1.612  0.6164E+00  0.1430E+02
   1.622  0.6034E+00  0.1431E+02
   1.632  0.5948E+00  0.1431E+02
   1.642  0.5899E+00  0.1432E+02
   1.652  0.5877E+00  0.1432E+02
   1.662  0.5877E+00  0.1433E+02
   1.672  0.5890E+00  0.1434E+02
   1.682  0.5912E+00  0.1434E+02
   1.692  0.5939E+00  0.1435E+02
   1.702  0.5966E+00  0.1435E+02
   1.712  0.5992E+00  0.1436E+02
   1.722  0.6014E+00  0.1437E+02
   1.732  0.6033E+00  0.1437E+02
   1.742  0.6047E+00  0.1438E+02
   1.752  0.6058E+00  0.1438E+02
   1.762  0.6065E+00  0.1439E+02
   1.772  0.6069E+00  0.1440E+02
   1.782  0.6070E+00  0.1440E+02
   1.792  0.6069E+00  0.1441E+02
   1.802  0.6065E+00  0.1442E+02
   1.812  0.6059E+00  0.1442E+02
   1.822  0.6050E+00  0.1443E+02
   1.832  0.6039E+00  0.1443E+02
   1.842  0.6026E+00  0.1444E+02
   1.852  0.6011E+00  0.1445E+02
   1.862  0.5995E+00  0.1445E+02
   1.872  0.5979E+00  0.1446E+02
   1.882  0.5963E+00  0.1446E+02
   1.892  0.5949E+00  0.1447E+02
   1.902  0.5935E+00  0.1448E+02
   1.912  0.5923E+00  0.1448E+02
   1.922  0.5912E+00  0.1449E+02
   1.932  0.5903E+00  0.1449E+02
   1.942  0.5893E+00  0.1450E+02
   1.952  0.5882E+00  0.1450E+02
   1.962  0.5871E+00  0.1451E+02
   1.972  0.5858E+00  0.1452E+02
   1.982  0.5843E+00  0.1452E+02
   1.992  0.5827E+00  0.1453E+02
   2.002  0.5809E+00  0.1453E+02
   2.012  0.5792E+00  0.1454E+02
   2.022  0.5775E+00  0.1455E+02
   2.032  0.5760E+00  0.1455E+02
   2.042  0.5747E+00  0.1456E+02
   2.052  0.5736E+00  0.1456E+02
   2.062  0.5728E+00  0.1457E+02
   2.072  0.5721E+00  0.1457E+02
   2.082  0.5714E+00  0.1458E+02
   2.092  0.5707E+00  0.1459E+02
   2.102  0.5699E+00  0.1459E+02
   2.112  0.5689E+00  0.1460E+02
   2.122  0.5675E+00  0.1460E+02
   2.132  0.5659E+00  0.1461E+02
   2.142  0.5642E+00  0.1461E+02
   2.152  0.5623E+00  0.1462E+02
   2.162  0.5605E+00  0.1463E+02
   2.172  0.5589E+00  0.1463E+02
   2.182  0.5575E+00  0.1464E+02
   2.192  0.5564E+00  0.1464E+02
   2.202  0.5557E+00  0.1465E+02
   2.212  0.5552E+00  0.1465E+02
   2.222  0.5549E+00  0.1466E+02
   2.232  0.5547E+00  0.1466E+02
   2.242  0.5543E+00  0.1467E+02
   2.252  0.5536E+00  0.1468E+02
   2.262  0.5526E+00  0.1468E+02
   2.272  0.5512E+00  0.1469E+02
   2.282  0.5495E+00  0.1469E+02
   2.292  0.5476E+00  0.1470E+02
   2.302  0.5456E+00  0.1470E+02
   2.312  0.5436E+00  0.1471E+02
   2.322  0.5419E+00  0.1471E+02
   2.332  0.5406E+00  0.1472E+02
   2.342  0.5398E+00  0.1472E+02
   2.352  0.5393E+00  0.1473E+02
   2.362  0.5393E+00  0.1473E+02
   2.372  0.5394E+00  0.1474E+02
   2.382  0.5395E+00  0.1475E+02
   2.392  0.5394E+00  0.1475E+02
   2.402  0.5390E+00  0.1476E+02
   2.412  0.5381E+00  0.1476E+02
   2.422  0.5368E+00  0.1477E+02
   2.432  0.5350E+00  0.1477E+02
   2.442  0.5328E+00  0.1478E+02
   2.452  0.5306E+00  0.1478E+02
   2.462  0.5285E+00  0.1479E+02
   2.472  0.5266E+00  0.1479E+02
   2.482  0.5253E+00  0.1480E+02
   2.492  0.5245E+00  0.1480E+02
   2.502  0.5242E+00  0.1481E+02
   2.512  0.5244E+00  0.1481E+02
   2.522  0.5248E+00  0.1482E+02
   2.532  0.5254E+00  0.1483E+02
   2.542  0.5257E+00  0.1483E+02
   2.552  0.5257E+00  0.1484E+02
   2.562  0.5252E+00  0.1484E+02
   2.572  0.5240E+00  0.1485E+02
   2.582  0.5222E+00  0.1485E+02
   2.592  0.5200E+00  0.1486E+02
   2.602  0.5176E+00  0.1486E+02
   2.612  0.5152E+00  0.1487E+02
   2.622  0.5130E+00  0.1487E+02
   2.632  0.5113E+00  0.1488E+02
   2.642  0.5103E+00  0.1488E+02
   2.652  0.5099E+00  0.1489E+02
   2.662  0.5102E+00  0.1489E+02
   2.672  0.5109E+00  0.1490E+02
   2.682  0.5118E+00  0.1490E+02
   2.692  0.5127E+00  0.1491E+02
   2.702  0.5133E+00  0.1491E+02
   2.712  0.5133E+00  0.1492E+02
   2.722  0.5126E+00  0.1492E+02
   2.732  0.5112E+00  0.1493E+02
   2.742  0.5092E+00  0.1493E+02
   2.752  0.5067E+00  0.1494E+02
   2.762  0.5040E+00  0.1494E+02
   2.772  0.5014E+00  0.1495E+02
   2.782  0.4991E+00  0.1495E+02
   2.792  0.4975E+00  0.1496E+02
   2.802  0.4966E+00  0.1496E+02
   2.812  0.4966E+00  0.1497E+02
   2.822  0.4972E+00  0.1497E+02
   2.832  0.4984E+00  0.1498E+02
   2.842  0.4997E+00  0.1498E+02
   2.852  0.5010E+00  0.1499E+02
   2.862  0.5019E+00  0.1499E+02
   2.872  0.5021E+00  0.1500E+02
   2.882  0.5015E+00  0.1500E+02
   2.892  0.5000E+00  0.1501E+02
   2.902  0.4978E+00  0.1501E+02
   2.912  0.4951E+00  0.1502E+02
   2.922  0.4921E+00  0.1502E+02
   2.932  0.4892E+00  0.1503E+02
   2.942  0.4867E+00  0.1503E+02
   2.952  0.4849E+00  0.1504E+02
   2.962  0.4840E+00  0.1504E+02
   2.972  0.4840E+00  0.1505E+02
   2.982  0.4848E+00  0.1505E+02
   2.992  0.4863E+00  0.1506E+02
   3.002  0.4881E+00  0.1506E+02
   3.012  0.4899E+00  0.1507E+02
   3.022  0.4912E+00  0.1507E+02
   3.032  0.4919E+00  0.1508E+02
   3.042  0.4917E+00  0.1508E+02
   3.052  0.4905E+00  0.1509E+02
   3.062  0.4883E+00  0.1509E+02
   3.072  0.4855E+00  0.1510E+02
   3.082  0.4822E+00  0.1510E+02
   3.092  0.4789E+00  0.1511E+02
   3.102  0.4759E+00  0.1511E+02
   3.112  0.4736E+00  0.1512E+02
   3.122  0.4722E+00  0.1512E+02
   3.132  0.4719E+00  0.1513E+02
   3.142  0.4727E+00  0.1513E+02
   3.152  0.4743E+00  0.1513E+02
   3.162  0.4764E+00  0.1514E+02
   3.172  0.4788E+00  0.1514E+02
   3.182  0.4809E+00  0.1515E+02
   3.192  0.4824E+00  0.1515E+02
   3.202  0.4829E+00  0.1516E+02
   3.212  0.4824E+00  0.1516E+02
   3.222  0.4807E+00  0.1517E+02
   3.232  0.4780E+00  0.1517E+02
   3.242  0.4746E+00  0.1518E+02
   3.252  0.4708E+00  0.1518E+02
   3.262  0.4672E+00  0.1519E+02
   3.272  0.4640E+00  0.1519E+02
   3.282  0.4617E+00  0.1520E+02
   3.292  0.4605E+00  0.1520E+02
   3.302  0.4606E+00  0.1521E+02
   3.312  0.4619E+00  0.1521E+02
   3.322  0.4641E+00  0.1521E+02
   3.332  0.4669E+00  0.1522E+02
   3.342  0.4699E+00  0.1522E+02
   3.352  0.4725E+00  0.1523E+02
   3.362  0.4744E+00  0.1523E+02
   3.372  0.4752E+00  0.1524E+02
   3.382  0.4747E+00  0.1524E+02
   3.392  0.4728E+00  0.1525E+02
   3.402  0.4698E+00  0.1525E+02
   3.412  0.4658E+00  0.1526E+02
   3.422  0.4615E+00  0.1526E+02
   3.432  0.4572E+00  0.1527E+02
   3.442  0.4535E+00  0.1527E+02
   3.452  0.4507E+00  0.1528E+02
   3.462  0.4493E+00  0.1528E+02
   3.472  0.4494E+00  0.1528E+02
   3.482  0.4509E+00  0.1529E+02
   3.492  0.4536E+00  0.1529E+02
   3.502  0.4571E+00  0.1530E+02
   3.512  0.4610E+00  0.1530E+02
   3.522  0.4645E+00  0.1531E+02
   3.532  0.4673E+00  0.1531E+02
   3.542  0.4688E+00  0.1532E+02
   3.552  0.4688E+00  0.1532E+02
   3.562  0.4673E+00  0.1533E+02
   3.572  0.4642E+00  0.1533E+02
   3.582  0.4598E+00  0.1534E+02
   3.592  0.4548E+00  0.1534E+02
   3.602  0.4496E+00  0.1534E+02
   3.612  0.4448E+00  0.1535E+02
   3.622  0.4411E+00  0.1535E+02
   3.632  0.4388E+00  0.1536E+02
   3.642  0.4382E+00  0.1536E+02
   3.652  0.4393E+00  0.1537E+02
   3.662  0.4421E+00  0.1537E+02
   3.672  0.4462E+00  0.1538E+02
   3.682  0.4509E+00  0.1538E+02
   3.692  0.4557E+00  0.1538E+02
   3.702  0.4600E+00  0.1539E+02
   3.712  0.4631E+00  0.1539E+02
   3.722  0.4645E+00  0.1540E+02
   3.732  0.4640E+00  0.1540E+02
   3.742  0.4616E+00  0.1541E+02
   3.752  0.4574E+00  0.1541E+02
   3.762  0.4520E+00  0.1542E+02
   3.772  0.4458E+00  0.1542E+02
   3.782  0.4396E+00  0.1543E+02
   3.792  0.4341E+00  0.1543E+02
   3.802  0.4300E+00  0.1543E+02
   3.812  0.4276E+00  0.1544E+02
   3.822  0.4274E+00  0.1544E+02
   3.832  0.4294E+00  0.1545E+02
   3.842  0.4332E+00  0.1545E+02
   3.852  0.4385E+00  0.1546E+02
   3.862  0.4446E+00  0.1546E+02
   3.872  0.4507E+00  0.1546E+02
   3.882  0.4560E+00  0.1547E+02
   3.892  0.4599E+00  0.1547E+02
   3.902  0.4618E+00  0.1548E+02
   3.912  0.4614E+00  0.1548E+02
   3.922  0.4586E+00  0.1549E+02
   3.932  0.4538E+00  0.1549E+02
   3.942  0.4473E+00  0.1550E+02
   3.952  0.4400E+00  0.1550E+02
   3.962  0.4325E+00  0.1551E+02
   3.972  0.4259E+00  0.1551E+02
   3.982  0.4207E+00  0.1551E+02
   3.992  0.4177E+00  0.1552E+02
   4.002  0.4172E+00  0.1552E+02
   4.012  0.4192E+00  0.1553E+02
   4.022  0.4236E+00  0.1553E+02
   4.032  0.4299E+00  0.1553E+02
   4.042  0.4372E+00  0.1554E+02
   4.052  0.4448E+00  0.1554E+02
   4.062  0.4517E+00  0.1555E+02
   4.072  0.4571E+00  0.1555E+02
   4.082  0.4603E+00  0.1556E+02
   4.092  0.4610E+00  0.1556E+02
   4.102  0.4588E+00  0.1557E+02
   4.112  0.4541E+00  0.1557E+02
   4.122  0.4473E+00  0.1558E+02
   4.132  0.4391E+00  0.1558E+02
   4.142  0.4304E+00  0.1558E+02
   4.152  0.4223E+00  0.1559E+02
   4.162  0.4155E+00  0.1559E+02
   4.172  0.4109E+00  0.1560E+02
   4.182  0.4090E+00  0.1560E+02
   4.192  0.4100E+00  0.1560E+02
   4.202  0.4138E+00  0.1561E+02
   4.212  0.4201E+00  0.1561E+02
   4.222  0.4281E+00  0.1562E+02
   4.232  0.4369E+00  0.1562E+02
   4.242  0.4456E+00  0.1563E+02
   4.252  0.4532E+00  0.1563E+02
   4.262  0.4588E+00  0.1564E+02
   4.272  0.4620E+00  0.1564E+02
   4.282  0.4623E+00  0.1564E+02
   4.292  0.4598E+00  0.1565E+02
   4.302  0.4548E+00  0.1565E+02
   4.312  0.4480E+00  0.1566E+02
   4.322  0.4403E+00  0.1566E+02
   4.332  0.4326E+00  0.1567E+02
   4.342  0.4260E+00  0.1567E+02
   4.352  0.4214E+00  0.1568E+02
   4.362  0.4196E+00  0.1568E+02
   4.372  0.4211E+00  0.1568E+02
   4.382  0.4258E+00  0.1569E+02
   4.392  0.4337E+00  0.1569E+02
   4.402  0.4441E+00  0.1570E+02
   4.412  0.4562E+00  0.1570E+02
   4.422  0.4689E+00  0.1571E+02
   4.432  0.4810E+00  0.1571E+02
   4.442  0.4913E+00  0.1572E+02
   4.452  0.4988E+00  0.1572E+02
   4.462  0.5024E+00  0.1573E+02
   4.472  0.5017E+00  0.1573E+02
   4.482  0.4963E+00  0.1574E+02
   4.492  0.4863E+00  0.1574E+02
   4.502  0.4720E+00  0.1575E+02
   4.512  0.4542E+00  0.1575E+02
   4.522  0.4337E+00  0.1575E+02
   4.532  0.4117E+00  0.1576E+02
   4.542  0.3893E+00  0.1576E+02
   4.552  0.3676E+00  0.1577E+02
   4.562  0.3477E+00  0.1577E+02
   4.572  0.3304E+00  0.1577E+02
   4.582  0.3164E+00  0.1578E+02
   4.592  0.3060E+00  0.1578E+02
   4.602  0.2993E+00  0.1578E+02
   4.612  0.2962E+00  0.1579E+02
   4.622  0.2964E+00  0.1579E+02
   4.632  0.2993E+00  0.1579E+02
   4.642  0.3044E+00  0.1579E+02
   4.652  0.3110E+00  0.1580E+02
   4.662  0.3185E+00  0.1580E+02
   4.672  0.3264E+00  0.1580E+02
   4.682  0.3344E+00  0.1581E+02
   4.692  0.3423E+00  0.1581E+02
   4.702  0.3499E+00  0.1581E+02
   4.712  0.3574E+00  0.1582E+02
   4.722  0.3650E+00  0.1582E+02
   4.732  0.3728E+00  0.1582E+02
   4.742  0.3813E+00  0.1583E+02
   4.752  0.3906E+00  0.1583E+02
   4.762  0.4009E+00  0.1584E+02
   4.772  0.4122E+00  0.1584E+02
   4.782  0.4243E+00  0.1584E+02
   4.792  0.4369E+00  0.1585E+02
   4.802  0.4496E+00  0.1585E+02
   4.812  0.4618E+00  0.1586E+02
   4.822  0.4730E+00  0.1586E+02
   4.832  0.4825E+00  0.1587E+02
   4.842  0.4898E+00  0.1587E+02
   4.852  0.4946E+00  0.1588E+02
   4.862  0.4965E+00  0.1588E+02
   4.872  0.4956E+00  0.1589E+02
   4.882  0.4920E+00  0.1589E+02
   4.892  0.4861E+00  0.1590E+02
   4.902  0.4785E+00  0.1590E+02
   4.912  0.4698E+00  0.1591E+02
   4.922  0.4607E+00  0.1591E+02
   4.932  0.4519E+00  0.1592E+02
   4.942  0.4439E+00  0.1592E+02
   4.952  0.4372E+00  0.1592E+02
   4.962  0.4321E+00  0.1593E+02
   4.972  0.4285E+00  0.1593E+02
   4.982  0.4265E+00  0.1594E+02
   4.992  0.4255E+00  0.1594E+02
   5.002  0.4252E+00  0.1595E+02
   5.012  0.4247E+00  0.1595E+02
   5.022  0.4234E+00  0.1595E+02
   5.032  0.4206E+00  0.1596E+02
   5.042  0.4156E+00  0.1596E+02
   5.052  0.4078E+00  0.1597E+02
   5.062  0.3968E+00  0.1597E+02
   5.072  0.3823E+00  0.1598E+02
   5.082  0.3644E+00  0.1598E+02
   5.092  0.3430E+00  0.1598E+02
   5.102  0.3187E+00  0.1599E+02
   5.112  0.2918E+00  0.1599E+02
   5.122  0.2630E+00  0.1599E+02
   5.132  0.2330E+00  0.1599E+02
   5.142  0.2025E+00  0.1600E+02
   5.152  0.1723E+00  0.1600E+02
   5.162  0.1431E+00  0.1600E+02
   5.172  0.1156E+00  0.1600E+02
   5.182  0.9012E-01  0.1600E+02
   5.192  0.6720E-01  0.1600E+02
   5.202  0.4708E-01  0.1600E+02
   5.212  0.2988E-01  0.1600E+02
   5.222  0.1561E-01  0.1600E+02
   5.232  0.4178E-02  0.1600E+02
   5.242 -0.4613E-02  0.1600E+02
   5.252 -0.1102E-01  0.1600E+02
   5.262 -0.1534E-01  0.1600E+02
   5.272 -0.1791E-01  0.1600E+02
   5.282 -0.1905E-01  0.1600E+02
   5.292 -0.1909E-01  0.1600E+02
   5.302 -0.1830E-01  0.1600E+02
   5.312 -0.1696E-01  0.1600E+02
   5.322 -0.1527E-01  0.1600E+02
   5.332 -0.1342E-01  0.1600E+02
   5.342 -0.1154E-01  0.1600E+02
   5.352 -0.9721E-02  0.1600E+02
   5.362 -0.8042E-02  0.1600E+02
   5.372 -0.6539E-02  0.1600E+02
   5.382 -0.5230E-02  0.1600E+02
   5.392 -0.4118E-02  0.1600E+02
   5.402 -0.3194E-02  0.1600E+02
   5.412 -0.2441E-02  0.1600E+02
   5.422 -0.1839E-02  0.1600E+02
   5.432 -0.1367E-02  0.1600E+02
   5.442 -0.1002E-02  0.1600E+02
   5.452 -0.7246E-03  0.1600E+02
   5.462 -0.5173E-03  0.1600E+02
   5.472 -0.3645E-03  0.1600E+02
   5.482 -0.2536E-03  0.1600E+02
   5.492 -0.1742E-03  0.1600E+02
